time (sec), current (uA)
0.094, -3.23
0.109, -1.66
0.294, -2.98
0.309, -2.06
0.494, -4.00
0.509, -0.13
0.694, -2.26
0.709, 2.27
0.894, -1.93
0.909, -1.00
1.094, 0.92
1.109, 0.34
1.294, 0.84
1.309, -1.26
1.494, -0.74
1.509, 0.28
1.694, -5.44
1.709, -3.52
1.894, -0.79
1.909, 0.04
2.094, -2.85
2.109, -1.96
2.294, -0.14
2.309, -2.47
2.494, 1.01
2.509, -2.71
2.694, -1.80
2.709, 0.86
2.894, -2.30
2.909, -3.00
3.094, 3.82
3.109, -0.68
3.294, -1.29
3.309, -3.70
3.494, -1.15
3.509, 1.21
3.694, 3.97
3.709, -0.66
3.894, 0.33
3.909, -2.20
4.094, -0.11
4.109, -2.17
4.294, 0.14
4.309, -2.15
4.494, -3.61
4.509, 0.48
4.694, -3.27
4.709, -2.73
4.894, 1.25
4.909, 0.41
5.094, -5.17
5.109, -1.79
5.294, 1.13
5.309, -1.74
5.494, -4.55
5.509, -0.99
5.694, -1.35
5.709, -2.38
5.894, -0.78
5.909, -0.74
6.094, -0.62
6.109, 6.43
6.294, 91.17
6.309, 101.07
6.494, 119.22
6.509, 142.95
6.694, 93.68
6.709, 86.37
6.894, 90.40
6.909, 95.04
7.094, 90.89
7.109, 92.45
7.294, 91.93
7.309, 97.39
7.494, 92.40
7.509, 95.52
7.694, 92.98
7.709, 97.99
7.894, 96.03
7.909, 93.92
8.094, 101.70
8.109, 99.17
8.294, 96.68
8.309, 94.91
8.494, 94.20
8.509, 95.02
8.694, 98.33
8.709, 98.01
8.894, 94.54
8.909, 94.62
9.094, 93.10
9.109, 97.75
9.294, 101.36
9.309, 92.19
9.494, 97.10
9.509, 95.69
9.694, 98.39
9.709, 95.52
9.894, 99.25
9.909, 100.09
10.094, 94.89
10.109, 98.77
10.294, 94.94
10.309, 99.19
10.494, 94.08
10.509, 96.53
10.694, 100.02
10.709, 98.65
10.894, 94.01
10.909, 89.77
11.094, 102.82
11.109, 97.93
11.294, 95.64
11.309, 96.69
11.494, 92.78
11.509, 98.47
11.694, 97.14
11.709, 96.31
11.894, 87.15
11.909, 100.07
12.094, 101.77
12.109, 94.44
12.294, 95.49
12.309, 100.95
12.494, 96.56
12.509, 97.12
12.694, 96.14
12.709, 101.05
12.894, 91.88
12.909, 97.50
13.094, 93.44
13.109, 96.27
13.294, 94.41
13.309, 95.51
13.494, 101.20
13.509, 101.54
13.694, 96.70
13.709, 97.12
13.894, 100.18
13.909, 98.13
14.094, 94.24
14.109, 98.51
14.294, 98.31
14.309, 97.62
14.494, 100.00
14.509, 99.98
14.694, 96.96
14.709, 93.01
14.894, 97.70
14.909, 98.24
15.094, 98.46
15.109, 94.85
15.294, 95.33
15.309, 92.73
15.494, 95.94
15.509, 97.26
15.694, 100.78
15.709, 100.57
15.894, 99.39
15.909, 98.85
16.094, 99.42
16.109, 100.23
16.294, 94.72
16.309, 99.72
16.494, 101.46
16.509, 98.00
16.694, 99.04
16.709, 99.23
16.894, 98.04
16.909, 95.68
17.094, 99.94
17.109, 101.23
17.294, 95.83
17.309, 97.50
17.494, 94.80
17.509, 98.05
17.694, 103.31
17.709, 96.96
17.894, 93.99
17.909, 94.83
18.094, 91.39
18.109, 97.31
18.294, 97.30
18.309, 92.43
18.494, 101.91
18.509, 100.83
18.694, 96.73
18.709, 99.36
18.894, 99.57
18.909, 100.89
19.094, 99.57
19.109, 98.01
19.294, 95.39
19.309, 95.84
19.494, 101.31
19.509, 99.06
19.694, 97.91
19.709, 101.31
19.894, 99.25
19.909, 99.39
20.094, 100.52
20.109, 99.82
20.294, 99.96
20.309, 102.30
20.494, 101.59
20.509, 101.45
20.694, 97.10
20.709, 99.00
20.894, 102.44
20.909, 101.76
21.094, 100.00
21.109, 101.95
21.294, 97.54
21.309, 100.27
21.494, 95.17
21.509, 97.18
21.694, 104.62
21.709, 101.71
21.894, 100.81
21.909, 98.98
22.094, 104.09
22.109, 100.06
22.294, 97.56
22.309, 98.12
22.494, 102.70
22.509, 95.82
22.694, 103.64
22.709, 104.11
22.894, 97.61
22.909, 100.14
23.094, 103.42
23.109, 106.32
23.294, 99.92
23.309, 102.86
23.494, 98.30
23.509, 98.73
23.694, 102.02
23.709, 101.95
23.894, 106.31
23.909, 98.11
24.094, 98.57
24.109, 101.16
24.294, 103.74
24.309, 101.43
24.494, 103.48
24.509, 103.31
24.694, 103.39
24.709, 99.67
24.894, 101.44
24.909, 101.21
25.094, 101.78
25.109, 96.26
25.294, 98.99
25.309, 97.92
25.494, 102.40
25.509, 99.98
25.694, 103.90
25.709, 102.46
25.894, 100.15
25.909, 99.45
26.094, 99.32
26.109, 103.02
26.294, 103.15
26.309, 97.58
26.494, 103.82
26.509, 100.35
26.694, 106.42
26.709, 102.96
26.894, 103.56
26.909, 102.72
27.094, 104.17
27.109, 103.11
27.294, 91.98
27.309, 103.51
27.494, 103.26
27.509, 101.86
27.694, 101.90
27.709, 104.77
27.894, 104.57
27.909, 101.54
28.094, 103.65
28.109, 105.18
28.294, 107.73
28.309, 102.49
28.494, 101.45
28.509, 99.81
28.694, 104.54
28.709, 104.63
28.894, 98.80
28.909, 97.16
29.094, 100.63
29.109, 104.00
29.294, 105.94
29.309, 103.80
29.494, 103.31
29.509, 103.21
29.694, 106.91
29.709, 102.45
29.894, 96.00
29.909, 104.69
30.094, 107.35
30.109, 101.75
30.294, 103.09
30.309, 103.24
30.494, 103.93
30.509, 96.40
30.694, 101.53
30.709, 99.04
30.894, 103.74
30.909, 101.83
31.094, 102.23
31.109, 101.14
31.294, 104.07
31.309, 102.08
31.494, 107.10
31.509, 99.13
31.694, 102.80
31.709, 100.93
31.894, 105.04
31.909, 102.44
32.094, 96.59
32.109, 100.34
32.294, 105.70
32.309, 105.30
32.494, 99.58
32.509, 104.02
32.694, 100.71
32.709, 103.13
32.894, 103.09
32.909, 101.30
33.094, 104.43
33.109, 103.92
33.294, 104.35
33.309, 104.61
33.494, 106.99
33.509, 103.25
33.694, 102.47
33.709, 103.18
33.894, 100.60
33.909, 99.28
34.094, 106.52
34.109, 103.81
34.294, 103.32
34.309, 104.08
34.494, 107.69
34.509, 101.89
34.694, 103.59
34.709, 105.79
34.894, 108.01
34.909, 105.24
35.094, 101.15
35.109, 105.00
35.294, 106.27
35.309, 105.05
35.494, 108.19
35.509, 105.30
35.694, 108.62
35.709, 103.54
35.894, 105.54
35.909, 102.15
36.094, 105.40
36.109, 104.96
36.294, 104.20
36.309, 107.38
36.494, 100.20
36.509, 104.82
36.694, 103.23
36.709, 103.52
36.894, 105.23
36.909, 104.63
37.094, 106.56
37.109, 107.83
37.294, 103.69
37.309, 101.93
37.494, 64.41
37.509, 65.36
37.694, 63.26
37.709, 57.82
37.894, 54.71
37.909, 57.21
38.094, 55.04
38.109, 54.51
38.294, 53.59
38.309, 50.16
38.494, 46.49
38.509, 51.32
38.694, 57.89
38.709, 55.57
38.894, 68.31
38.909, 70.51
39.094, 71.44
39.109, 71.30
39.294, 87.20
39.309, 85.30
39.494, 102.51
39.509, 103.35
39.694, 106.26
39.709, 107.47
39.894, 106.39
39.909, 109.41
40.094, 106.56
40.109, 105.06
40.294, 106.88
40.309, 107.43
40.494, 102.82
40.509, 110.57
40.694, 104.94
40.709, 107.24
40.894, 104.52
40.909, 100.77
41.094, 109.30
41.109, 106.90
41.294, 107.33
41.309, 99.48
41.494, 102.18
41.509, 107.57
41.694, 109.73
41.709, 113.10
41.894, 105.06
41.909, 117.31
42.094, 104.79
42.109, 108.25
42.294, 108.31
42.309, 108.24
42.494, 105.75
42.509, 106.75
42.694, 108.00
42.709, 107.05
42.894, 107.74
42.909, 110.82
43.094, 112.28
43.109, 110.14
43.294, 109.10
43.309, 106.81
43.494, 107.34
43.509, 111.32
43.694, 110.36
43.709, 114.11
43.894, 108.07
43.909, 108.30
44.094, 111.16
44.109, 107.88
44.294, 110.53
44.309, 112.89
44.494, 104.59
44.509, 110.65
44.694, 112.90
44.709, 107.40
44.894, 102.69
44.909, 108.16
45.094, 111.04
45.109, 110.96
45.294, 109.71
45.309, 110.84
45.494, 107.20
45.509, 108.86
45.694, 110.58
45.709, 105.44
45.894, 104.78
45.909, 109.14
46.094, 106.72
46.109, 110.01
46.294, 110.55
46.309, 107.61
46.494, 109.72
46.509, 112.05
46.694, 110.66
46.709, 117.46
46.894, 109.81
46.909, 113.08
47.094, 110.53
47.109, 111.00
47.294, 112.45
47.309, 109.58
47.494, 107.53
47.509, 110.56
47.694, 111.21
47.709, 117.48
47.894, 113.15
47.909, 116.79
48.094, 110.26
48.109, 110.90
48.294, 111.28
48.309, 111.16
48.494, 111.93
48.509, 114.60
48.694, 113.61
48.709, 105.80
48.894, 109.96
48.909, 113.22
49.094, 108.94
49.109, 113.35
49.294, 111.60
49.309, 106.79
49.494, 113.05
49.509, 108.94
49.694, 114.15
49.709, 108.89
49.894, 112.41
49.909, 109.59
50.094, 116.17
50.109, 114.75
50.294, 112.57
50.309, 110.97
50.494, 109.87
50.509, 112.42
50.694, 110.84
50.709, 112.44
50.894, 117.11
50.909, 116.30
51.094, 111.12
51.109, 111.45
51.294, 111.39
51.309, 114.45
51.494, 111.98
51.509, 112.44
51.694, 115.53
51.709, 109.60
51.894, 109.62
51.909, 116.11
52.094, 109.73
52.109, 113.50
52.294, 104.94
52.309, 112.81
52.494, 110.57
52.509, 115.11
52.694, 114.84
52.709, 109.05
52.894, 108.15
52.909, 112.18
53.094, 115.61
53.109, 111.73
53.294, 111.93
53.309, 112.27
53.494, 111.65
53.509, 111.58
53.694, 108.80
53.709, 108.45
53.894, 113.13
53.909, 109.48
54.094, 111.11
54.109, 113.19
54.294, 120.47
54.309, 114.15
54.494, 114.19
54.509, 112.82
54.694, 113.32
54.709, 110.28
54.894, 117.93
54.909, 109.60
55.094, 116.45
55.109, 112.28
55.294, 106.74
55.309, 107.20
55.494, 107.69
55.509, 109.76
55.694, 110.30
55.709, 110.59
55.894, 114.02
55.909, 110.68
56.094, 113.10
56.109, 112.48
56.294, 113.65
56.309, 113.69
56.494, 118.07
56.509, 110.52
56.694, 110.62
56.709, 113.97
56.894, 118.93
56.909, 110.87
57.094, 118.12
57.109, 112.55
57.294, 112.49
57.309, 109.75
57.494, 71.28
57.509, 65.76
57.694, 70.44
57.709, 67.59
57.894, 63.41
57.909, 61.99
58.094, 65.25
58.109, 56.05
58.294, 63.14
58.309, 56.99
58.494, 59.73
58.509, 58.90
58.694, 62.19
58.709, 65.71
58.894, 86.13
58.909, 84.88
59.094, 83.41
59.109, 85.75
59.294, 104.72
59.309, 101.13
59.494, 111.46
59.509, 114.17
59.694, 108.51
59.709, 110.89
59.894, 111.49
59.909, 112.14
60.094, 111.79
60.109, 113.62
60.294, 113.13
60.309, 112.73
60.494, 112.90
60.509, 114.31
60.694, 115.63
60.709, 114.21
60.894, 112.59
60.909, 115.38
61.094, 116.05
61.109, 113.99
61.294, 116.02
61.309, 113.87
61.494, 114.22
61.509, 114.87
61.694, 112.57
61.709, 116.42
61.894, 113.52
61.909, 115.52
62.094, 113.79
62.109, 113.79
62.294, 114.73
62.309, 115.79
62.494, 114.39
62.509, 112.58
62.694, 116.30
62.709, 114.23
62.894, 115.55
62.909, 115.47
63.094, 116.58
63.109, 114.43
63.294, 115.45
63.309, 113.51
63.494, 115.06
63.509, 114.73
63.694, 113.54
63.709, 116.71
63.894, 117.65
63.909, 115.22
64.094, 115.59
64.109, 114.93
64.294, 111.22
64.309, 114.55
64.494, 116.48
64.509, 114.86
64.694, 113.79
64.709, 112.27
64.894, 114.80
64.909, 111.28
65.094, 114.14
65.109, 114.48
65.294, 115.23
65.309, 113.93
65.494, 112.98
65.509, 113.85
65.694, 112.60
65.709, 114.12
65.894, 112.26
65.909, 112.68
66.094, 117.75
66.109, 114.22
66.294, 113.99
66.309, 117.34
66.494, 113.27
66.509, 115.20
66.694, 114.90
66.709, 114.33
66.894, 118.05
66.909, 115.96
67.094, 112.62
67.109, 112.62
67.294, 110.73
67.309, 118.81
67.494, 116.81
67.509, 114.49
67.694, 114.78
67.709, 112.86
67.894, 113.38
67.909, 112.34
68.094, 115.74
68.109, 116.11
68.294, 116.23
68.309, 118.24
68.494, 116.14
68.509, 114.97
68.694, 114.40
68.709, 113.67
68.894, 111.32
68.909, 115.31
69.094, 112.67
69.109, 113.13
69.294, 115.20
69.309, 114.67
69.494, 117.26
69.509, 118.17
69.694, 118.58
69.709, 115.62
69.894, 122.13
69.909, 115.52
70.094, 113.71
70.109, 115.75
70.294, 112.83
70.309, 116.44
70.494, 117.17
70.509, 117.01
70.694, 117.03
70.709, 114.86
70.894, 117.96
70.909, 114.06
71.094, 116.63
71.109, 115.49
71.294, 116.27
71.309, 117.47
71.494, 110.92
71.509, 119.82
71.694, 114.38
71.709, 117.47
71.894, 115.67
71.909, 117.56
72.094, 117.40
72.109, 117.57
72.294, 118.26
72.309, 118.26
72.494, 116.83
72.509, 115.62
72.694, 115.55
72.709, 114.97
72.894, 111.45
72.909, 115.34
73.094, 115.85
73.109, 118.35
73.294, 117.88
73.309, 117.67
73.494, 116.00
73.509, 117.95
73.694, 118.49
73.709, 115.15
73.894, 113.52
73.909, 118.67
74.094, 111.08
74.109, 114.61
74.294, 113.35
74.309, 115.98
74.494, 117.34
74.509, 115.51
74.694, 120.08
74.709, 118.12
74.894, 114.08
74.909, 113.72
75.094, 115.16
75.109, 117.57
75.294, 118.79
75.309, 115.32
75.494, 116.02
75.509, 120.20
75.694, 118.03
75.709, 120.01
75.894, 119.65
75.909, 114.30
76.094, 119.15
76.109, 119.27
76.294, 120.54
76.309, 116.33
76.494, 118.34
76.509, 117.03
76.694, 117.20
76.709, 117.75
76.894, 123.70
76.909, 113.90
77.094, 121.17
77.109, 117.30
77.294, 114.34
77.309, 118.09
77.494, 80.58
77.509, 73.84
77.694, 69.09
77.709, 70.20
77.894, 69.27
77.909, 71.14
78.094, 71.44
78.109, 65.51
78.294, 62.66
78.309, 63.23
78.494, 73.74
78.509, 67.65
78.694, 81.37
78.709, 81.29
78.894, 94.62
78.909, 101.10
79.094, 88.39
79.109, 92.53
79.294, 105.66
79.309, 106.30
79.494, 121.19
79.509, 116.18
79.694, 119.93
79.709, 120.46
79.894, 115.39
79.909, 115.86
80.094, 118.02
80.109, 117.51
80.294, 118.75
80.309, 117.65
80.494, 116.80
80.509, 115.67
80.694, 113.53
80.709, 120.70
80.894, 114.69
80.909, 120.29
81.094, 119.61
81.109, 117.70
81.294, 121.14
81.309, 116.69
81.494, 117.95
81.509, 117.53
81.694, 121.29
81.709, 119.15
81.894, 119.14
81.909, 118.56
82.094, 117.76
82.109, 117.87
82.294, 118.86
82.309, 120.98
82.494, 114.23
82.509, 118.01
82.694, 116.93
82.709, 116.58
82.894, 116.22
82.909, 117.24
83.094, 116.53
83.109, 118.30
83.294, 117.06
83.309, 118.90
83.494, 120.88
83.509, 116.78
83.694, 119.37
83.709, 117.75
83.894, 118.66
83.909, 117.53
84.094, 120.35
84.109, 121.86
84.294, 118.31
84.309, 117.98
84.494, 117.12
84.509, 120.54
84.694, 121.72
84.709, 116.91
84.894, 119.27
84.909, 117.98
85.094, 120.90
85.109, 118.69
85.294, 116.77
85.309, 118.77
85.494, 118.69
85.509, 119.18
85.694, 118.64
85.709, 119.05
85.894, 120.17
85.909, 116.83
86.094, 122.62
86.109, 117.75
86.294, 116.42
86.309, 117.98
86.494, 119.09
86.509, 118.22
86.694, 117.11
86.709, 120.32
86.894, 119.20
86.909, 118.02
87.094, 118.56
87.109, 115.05
87.294, 119.49
87.309, 119.01
87.494, 120.98
87.509, 119.47
87.694, 120.33
87.709, 117.95
87.894, 117.78
87.909, 120.87
88.094, 119.44
88.109, 115.74
88.294, 121.39
88.309, 117.55
88.494, 120.00
88.509, 121.00
88.694, 121.71
88.709, 119.09
88.894, 122.50
88.909, 121.81
89.094, 119.29
89.109, 117.20
89.294, 122.03
89.309, 116.56
89.494, 120.75
89.509, 116.99
89.694, 124.72
89.709, 119.40
89.894, 118.71
89.909, 116.18
90.094, 116.68
90.109, 116.96
90.294, 119.39
90.309, 118.42
90.494, 119.14
90.509, 118.71
90.694, 122.83
90.709, 122.63
90.894, 115.77
90.909, 116.84
91.094, 115.75
91.109, 122.32
91.294, 119.58
91.309, 125.03
91.494, 118.98
91.509, 122.33
91.694, 120.40
91.709, 120.86
91.894, 116.10
91.909, 120.06
92.094, 121.32
92.109, 121.04
92.294, 124.22
92.309, 118.84
92.494, 122.20
92.509, 122.70
92.694, 119.94
92.709, 122.36
92.894, 122.94
92.909, 126.96
93.094, 125.51
93.109, 124.25
93.294, 124.34
93.309, 122.73
93.494, 123.13
93.509, 125.93
93.694, 120.58
93.709, 125.02
93.894, 120.90
93.909, 122.64
94.094, 122.97
94.109, 121.40
94.294, 121.25
94.309, 121.39
94.494, 122.45
94.509, 121.23
94.694, 122.03
94.709, 121.04
94.894, 122.60
94.909, 126.11
95.094, 127.63
95.109, 122.46
95.294, 122.51
95.309, 120.15
95.494, 128.80
95.509, 122.21
95.694, 121.40
95.709, 122.24
95.894, 122.75
95.909, 121.92
96.094, 121.33
96.109, 124.04
96.294, 121.38
96.309, 118.34
96.494, 120.23
96.509, 120.31
96.694, 123.23
96.709, 117.51
96.894, 119.58
96.909, 121.69
97.094, 118.85
97.109, 119.06
97.294, 120.77
97.309, 119.26
97.494, 80.74
97.509, 81.23
97.694, 79.69
97.709, 79.66
97.894, 75.57
97.909, 73.43
98.094, 72.65
98.109, 73.72
98.294, 72.02
98.309, 69.43
98.494, 75.33
98.509, 75.79
98.694, 92.20
98.709, 102.58
98.894, 107.33
98.909, 112.23
99.094, 103.31
99.109, 102.82
99.294, 111.14
99.309, 113.36
99.494, 117.08
99.509, 118.11
99.694, 117.87
99.709, 119.36
99.894, 116.11
99.909, 120.95
100.094, 121.50
100.109, 123.26
100.294, 124.53
100.309, 117.25
100.494, 119.90
100.509, 120.44
100.694, 118.30
100.709, 115.91
100.894, 124.51
100.909, 117.78
101.094, 122.41
101.109, 117.74
101.294, 115.58
101.309, 120.17
101.494, 117.82
101.509, 115.76
101.694, 119.10
101.709, 119.57
101.894, 121.49
101.909, 119.51
102.094, 118.54
102.109, 120.55
102.294, 116.66
102.309, 119.65
102.494, 120.97
102.509, 118.14
102.694, 118.78
102.709, 117.50
102.894, 118.06
102.909, 121.34
103.094, 115.71
103.109, 120.60
103.294, 118.96
103.309, 118.18
103.494, 123.11
103.509, 120.37
103.694, 119.54
103.709, 121.52
103.894, 120.31
103.909, 123.30
104.094, 119.18
104.109, 119.66
104.294, 121.09
104.309, 118.16
104.494, 123.77
104.509, 121.06
104.694, 123.10
104.709, 123.50
104.894, 121.12
104.909, 124.48
105.094, 123.54
105.109, 117.41
105.294, 122.30
105.309, 119.72
105.494, 121.10
105.509, 120.52
105.694, 121.28
105.709, 118.39
105.894, 119.88
105.909, 121.98
106.094, 124.02
106.109, 120.18
106.294, 125.44
106.309, 122.04
106.494, 122.90
106.509, 124.71
106.694, 122.82
106.709, 122.50
106.894, 122.72
106.909, 120.58
107.094, 120.47
107.109, 121.32
107.294, 118.26
107.309, 118.72
107.494, 117.13
107.509, 121.92
107.694, 120.96
107.709, 120.07
107.894, 115.71
107.909, 119.28
108.094, 118.66
108.109, 122.36
108.294, 122.91
108.309, 118.00
108.494, 120.18
108.509, 117.61
108.694, 119.04
108.709, 122.66
108.894, 123.81
108.909, 123.41
109.094, 119.52
109.109, 124.85
109.294, 119.17
109.309, 122.36
109.494, 119.02
109.509, 125.63
109.694, 124.27
109.709, 122.16
109.894, 116.59
109.909, 121.84
110.094, 122.34
110.109, 119.78
110.294, 120.58
110.309, 122.09
110.494, 117.61
110.509, 119.40
110.694, 121.53
110.709, 121.81
110.894, 129.02
110.909, 123.28
111.094, 122.02
111.109, 120.41
111.294, 126.92
111.309, 122.13
111.494, 122.10
111.509, 120.95
111.694, 121.72
111.709, 121.06
111.894, 118.08
111.909, 119.16
112.094, 119.48
112.109, 123.82
112.294, 122.11
112.309, 118.33
112.494, 125.50
112.509, 122.48
112.694, 123.27
112.709, 122.50
112.894, 124.04
112.909, 124.31
113.094, 120.45
113.109, 119.67
113.294, 124.22
113.309, 124.20
113.494, 123.66
113.509, 121.15
113.694, 124.24
113.709, 118.29
113.894, 118.68
113.909, 125.18
114.094, 123.62
114.109, 125.36
114.294, 126.71
114.309, 123.56
114.494, 120.13
114.509, 120.83
114.694, 121.54
114.709, 125.14
114.894, 122.14
114.909, 120.82
115.094, 129.19
115.109, 126.94
115.294, 119.86
115.309, 119.85
115.494, 123.98
115.509, 121.71
115.694, 126.50
115.709, 122.87
115.894, 123.66
115.909, 117.25
116.094, 120.11
116.109, 117.46
116.294, 118.84
116.309, 119.39
116.494, 122.31
116.509, 120.25
116.694, 123.64
116.709, 119.32
116.894, 124.81
116.909, 116.94
117.094, 119.61
117.109, 121.63
117.294, 121.71
117.309, 119.88
117.494, 91.21
117.509, 92.55
117.694, 86.39
117.709, 79.58
117.894, 82.09
117.909, 78.05
118.094, 78.92
118.109, 76.83
118.294, 77.57
118.309, 73.73
118.494, 91.35
118.509, 85.91
118.694, 109.34
118.709, 103.82
118.894, 118.53
118.909, 113.22
119.094, 110.85
119.109, 109.61
119.294, 116.62
119.309, 118.41
119.494, 117.41
119.509, 117.86
119.694, 118.12
119.709, 116.13
119.894, 117.38
119.909, 117.27
120.094, 126.35
120.109, 122.23
120.294, 119.12
120.309, 122.98
120.494, 120.49
120.509, 118.23
120.694, 115.94
120.709, 119.08
120.894, 121.77
120.909, 117.46
121.094, 123.29
121.109, 119.61
121.294, 116.04
121.309, 118.15
121.494, 120.07
121.509, 118.85
121.694, 121.97
121.709, 120.56
121.894, 118.93
121.909, 120.08
122.094, 114.16
122.109, 118.52
122.294, 121.27
122.309, 122.24
122.494, 116.83
122.509, 119.65
122.694, 120.52
122.709, 116.69
122.894, 122.35
122.909, 119.40
123.094, 123.40
123.109, 118.71
123.294, 117.78
123.309, 118.13
123.494, 117.22
123.509, 119.25
123.694, 120.04
123.709, 123.26
123.894, 120.81
123.909, 120.27
124.094, 116.55
124.109, 115.09
124.294, 116.41
124.309, 119.77
124.494, 121.51
124.509, 120.23
124.694, 121.80
124.709, 120.37
124.894, 126.01
124.909, 123.80
125.094, 123.24
125.109, 116.97
125.294, 125.35
125.309, 121.64
125.494, 122.27
125.509, 118.78
125.694, 119.98
125.709, 121.86
125.894, 118.10
125.909, 114.54
126.094, 123.62
126.109, 120.17
126.294, 114.91
126.309, 119.24
126.494, 118.33
126.509, 119.16
126.694, 122.82
126.709, 120.43
126.894, 114.81
126.909, 116.22
127.094, 121.20
127.109, 118.18
127.294, 119.97
127.309, 116.63
127.494, 120.41
127.509, 119.35
127.694, 116.86
127.709, 118.70
127.894, 118.23
127.909, 120.92
128.094, 120.44
128.109, 117.09
128.294, 123.00
128.309, 121.48
128.494, 120.53
128.509, 122.78
128.694, 120.35
128.709, 115.53
128.894, 117.26
128.909, 122.63
129.094, 116.77
129.109, 120.80
129.294, 113.71
129.309, 115.87
129.494, 119.03
129.509, 117.58
129.694, 118.50
129.709, 119.05
129.894, 118.72
129.909, 116.51
130.094, 123.37
130.109, 121.92
130.294, 123.11
130.309, 120.65
130.494, 123.66
130.509, 119.34
130.694, 124.78
130.709, 115.18
130.894, 119.68
130.909, 118.90
131.094, 122.41
131.109, 118.34
131.294, 122.51
131.309, 119.05
131.494, 120.84
131.509, 121.91
131.694, 119.86
131.709, 117.68
131.894, 119.63
131.909, 125.80
132.094, 121.89
132.109, 121.84
132.294, 117.42
132.309, 121.02
132.494, 120.25
132.509, 113.61
132.694, 122.12
132.709, 117.52
132.894, 113.28
132.909, 118.74
133.094, 120.39
133.109, 119.68
133.294, 119.95
133.309, 117.30
133.494, 119.48
133.509, 124.49
133.694, 120.09
133.709, 120.60
133.894, 121.16
133.909, 121.47
134.094, 118.14
134.109, 119.20
134.294, 123.68
134.309, 118.60
134.494, 119.36
134.509, 119.41
134.694, 120.98
134.709, 124.56
134.894, 120.01
134.909, 121.23
135.094, 121.40
135.109, 123.00
135.294, 123.26
135.309, 117.68
135.494, 119.05
135.509, 116.25
135.694, 122.62
135.709, 123.11
135.894, 119.07
135.909, 124.53
136.094, 121.88
136.109, 121.44
136.294, 120.29
136.309, 119.09
136.494, 120.93
136.509, 122.11
136.694, 120.47
136.709, 128.42
136.894, 119.63
136.909, 126.83
137.094, 125.29
137.109, 121.45
137.294, 121.60
137.309, 117.04
137.494, 92.84
137.509, 98.75
137.694, 91.08
137.709, 91.05
137.894, 78.53
137.909, 79.04
138.094, 87.79
138.109, 84.43
138.294, 80.28
138.309, 82.36
138.494, 85.78
138.509, 86.75
138.694, 113.81
138.709, 112.05
138.894, 116.06
138.909, 129.79
139.094, 112.50
139.109, 113.91
139.294, 117.92
139.309, 123.14
139.494, 125.43
139.509, 122.81
139.694, 123.82
139.709, 124.89
139.894, 123.84
139.909, 123.28
140.094, 119.34
140.109, 124.29
140.294, 118.90
140.309, 119.09
140.494, 123.42
140.509, 119.20
140.694, 124.32
140.709, 117.70
140.894, 119.61
140.909, 124.19
141.094, 116.59
141.109, 119.28
141.294, 120.86
141.309, 121.54
141.494, 116.63
141.509, 118.23
141.694, 123.02
141.709, 117.77
141.894, 118.41
141.909, 118.75
142.094, 124.18
142.109, 118.52
142.294, 124.60
142.309, 119.18
142.494, 127.65
142.509, 121.04
142.694, 123.52
142.709, 118.48
142.894, 118.98
142.909, 118.38
143.094, 120.99
143.109, 121.84
143.294, 118.56
143.309, 118.45
143.494, 120.58
143.509, 120.44
143.694, 124.46
143.709, 121.99
143.894, 118.13
143.909, 120.55
144.094, 119.80
144.109, 116.73
144.294, 129.16
144.309, 121.82
144.494, 120.04
144.509, 119.17
144.694, 125.93
144.709, 116.15
144.894, 120.36
144.909, 115.18
145.094, 121.05
145.109, 121.57
145.294, 122.00
145.309, 118.10
145.494, 128.58
145.509, 119.03
145.694, 122.61
145.709, 118.68
145.894, 118.67
145.909, 123.17
146.094, 119.15
146.109, 118.98
146.294, 119.75
146.309, 121.58
146.494, 123.15
146.509, 120.68
146.694, 119.77
146.709, 120.09
146.894, 120.14
146.909, 119.02
147.094, 119.90
147.109, 118.22
147.294, 119.14
147.309, 119.06
147.494, 124.40
147.509, 121.44
147.694, 120.33
147.709, 120.67
147.894, 125.23
147.909, 118.24
148.094, 115.70
148.109, 118.21
148.294, 121.09
148.309, 122.66
148.494, 117.23
148.509, 116.19
148.694, 118.01
148.709, 120.63
148.894, 119.01
148.909, 119.29
149.094, 120.52
149.109, 120.02
149.294, 122.05
149.309, 124.15
149.494, 120.12
149.509, 122.07
149.694, 121.48
149.709, 122.41
149.894, 115.94
149.909, 115.62
150.094, 124.55
150.109, 122.86
150.294, 117.47
150.309, 119.34
150.494, 123.27
150.509, 120.49
150.694, 119.38
150.709, 117.20
150.894, 118.74
150.909, 117.83
151.094, 119.70
151.109, 121.68
151.294, 120.68
151.309, 118.89
151.494, 120.21
151.509, 123.75
151.694, 120.15
151.709, 118.92
151.894, 120.37
151.909, 119.93
152.094, 120.07
152.109, 123.62
152.294, 120.34
152.309, 117.84
152.494, 120.69
152.509, 120.20
152.694, 121.88
152.709, 116.52
152.894, 121.09
152.909, 121.90
153.094, 116.54
153.109, 120.80
153.294, 117.32
153.309, 116.47
153.494, 118.74
153.509, 120.06
153.694, 121.59
153.709, 122.56
153.894, 114.33
153.909, 119.51
154.094, 116.95
154.109, 117.47
154.294, 121.14
154.309, 119.45
154.494, 122.14
154.509, 121.00
154.694, 118.00
154.709, 117.67
154.894, 121.41
154.909, 117.70
155.094, 120.87
155.109, 123.46
155.294, 118.74
155.309, 116.19
155.494, 117.83
155.509, 118.79
155.694, 117.56
155.709, 118.60
155.894, 118.30
155.909, 120.85
156.094, 120.58
156.109, 121.49
156.294, 121.43
156.309, 122.10
156.494, 122.20
156.509, 120.99
156.694, 117.29
156.709, 118.96
156.894, 120.39
156.909, 120.77
157.094, 120.33
157.109, 118.29
157.294, 118.86
157.309, 123.64
157.494, 104.72
157.509, 102.99
157.694, 98.68
157.709, 84.82
157.894, 89.94
157.909, 87.10
158.094, 84.90
158.109, 81.76
158.294, 80.77
158.309, 86.08
158.494, 84.53
158.509, 94.40
158.694, 113.71
158.709, 121.41
158.894, 127.98
158.909, 130.31
159.094, 123.15
159.109, 122.00
159.294, 115.57
159.309, 124.02
159.494, 119.04
159.509, 118.75
159.694, 121.82
159.709, 122.56
159.894, 120.01
159.909, 121.66
160.094, 118.77
160.109, 121.91
160.294, 122.61
160.309, 116.38
160.494, 121.04
160.509, 119.66
160.694, 119.36
160.709, 119.40
160.894, 118.53
160.909, 119.50
161.094, 119.03
161.109, 122.75
161.294, 121.94
161.309, 122.66
161.494, 116.20
161.509, 119.56
161.694, 121.86
161.709, 117.18
161.894, 120.55
161.909, 119.84
162.094, 118.21
162.109, 119.40
162.294, 118.91
162.309, 121.14
162.494, 114.67
162.509, 118.74
162.694, 121.52
162.709, 121.11
162.894, 120.90
162.909, 117.90
163.094, 118.20
163.109, 119.53
163.294, 119.65
163.309, 120.73
163.494, 120.14
163.509, 119.19
163.694, 117.91
163.709, 118.61
163.894, 121.05
163.909, 116.15
164.094, 127.23
164.109, 117.63
164.294, 117.51
164.309, 120.49
164.494, 122.99
164.509, 115.82
164.694, 117.73
164.709, 119.05
164.894, 120.33
164.909, 116.99
165.094, 117.72
165.109, 123.69
165.294, 117.24
165.309, 120.00
165.494, 120.98
165.509, 119.19
165.694, 120.29
165.709, 120.78
165.894, 122.49
165.909, 116.85
166.094, 119.69
166.109, 119.70
166.294, 120.14
166.309, 123.72
166.494, 120.28
166.509, 118.52
166.694, 120.00
166.709, 120.02
166.894, 119.56
166.909, 119.01
167.094, 118.79
167.109, 124.91
167.294, 119.49
167.309, 119.76
167.494, 123.57
167.509, 119.15
167.694, 117.35
167.709, 122.03
167.894, 117.80
167.909, 121.46
168.094, 119.70
168.109, 122.23
168.294, 120.29
168.309, 119.23
168.494, 122.43
168.509, 119.47
168.694, 121.46
168.709, 122.45
168.894, 117.72
168.909, 122.35
169.094, 124.28
169.109, 118.65
169.294, 120.00
169.309, 121.97
169.494, 119.08
169.509, 121.29
169.694, 117.31
169.709, 116.96
169.894, 125.06
169.909, 120.01
170.094, 119.17
170.109, 118.28
170.294, 123.55
170.309, 118.43
170.494, 120.28
170.509, 118.76
170.694, 120.06
170.709, 123.55
170.894, 123.14
170.909, 120.81
171.094, 120.13
171.109, 124.17
171.294, 118.08
171.309, 123.25
171.494, 117.59
171.509, 115.93
171.694, 118.19
171.709, 119.13
171.894, 127.11
171.909, 119.86
172.094, 121.03
172.109, 117.54
172.294, 120.28
172.309, 118.33
172.494, 122.56
172.509, 121.60
172.694, 121.62
172.709, 119.44
172.894, 121.03
172.909, 118.57
173.094, 119.39
173.109, 123.45
173.294, 121.80
173.309, 116.17
173.494, 119.03
173.509, 118.14
173.694, 124.99
173.709, 122.62
173.894, 123.53
173.909, 121.95
174.094, 121.17
174.109, 120.29
174.294, 123.56
174.309, 120.23
174.494, 122.49
174.509, 122.78
174.694, 124.79
174.709, 121.68
174.894, 118.37
174.909, 121.30
175.094, 123.27
175.109, 121.32
175.294, 122.95
175.309, 120.64
175.494, 114.77
175.509, 120.94
175.694, 120.36
175.709, 122.52
175.894, 122.37
175.909, 120.49
176.094, 125.37
176.109, 120.47
176.294, 118.50
176.309, 126.87
176.494, 121.71
176.509, 116.45
176.694, 118.22
176.709, 121.39
176.894, 120.41
176.909, 125.00
177.094, 119.35
177.109, 124.63
177.294, 120.40
177.309, 123.61
177.494, 105.55
177.509, 109.44
177.694, 95.16
177.709, 91.38
177.894, 94.08
177.909, 91.64
178.094, 89.50
178.109, 91.26
178.294, 83.05
178.309, 91.98
178.494, 88.06
178.509, 92.13
178.694, 128.96
178.709, 125.68
178.894, 129.22
178.909, 135.43
179.094, 129.66
179.109, 126.44
179.294, 123.65
179.309, 119.61
179.494, 122.43
179.509, 120.67
179.694, 123.24
179.709, 121.44
179.894, 131.08
179.909, 119.72
180.094, 121.61
180.109, 117.36
180.294, 120.95
180.309, 117.12
180.494, 124.72
180.509, 121.07
180.694, 128.20
180.709, 118.70
180.894, 126.66
180.909, 122.13
181.094, 120.70
181.109, 120.81
181.294, 124.72
181.309, 120.49
181.494, 120.70
181.509, 121.40
181.694, 123.97
181.709, 120.28
181.894, 117.83
181.909, 121.25
182.094, 123.13
182.109, 120.76
182.294, 123.65
182.309, 119.06
182.494, 124.80
182.509, 124.81
182.694, 117.05
182.709, 119.09
182.894, 120.95
182.909, 120.79
183.094, 119.10
183.109, 118.93
183.294, 121.07
183.309, 116.46
183.494, 119.14
183.509, 119.44
183.694, 123.93
183.709, 119.61
183.894, 119.95
183.909, 121.75
184.094, 119.28
184.109, 119.09
184.294, 122.31
184.309, 121.10
184.494, 121.97
184.509, 122.08
184.694, 119.48
184.709, 121.57
184.894, 121.76
184.909, 123.05
185.094, 117.60
185.109, 118.49
185.294, 124.85
185.309, 122.66
185.494, 124.79
185.509, 121.89
185.694, 121.13
185.709, 118.57
185.894, 120.89
185.909, 121.20
186.094, 117.46
186.109, 121.25
186.294, 117.95
186.309, 119.16
186.494, 124.31
186.509, 122.08
186.694, 121.89
186.709, 120.07
186.894, 119.85
186.909, 117.84
187.094, 120.05
187.109, 121.97
187.294, 116.13
187.309, 120.42
187.494, 124.97
187.509, 119.25
187.694, 120.17
187.709, 121.45
187.894, 121.73
187.909, 122.34
188.094, 122.09
188.109, 123.81
188.294, 119.96
188.309, 122.50
188.494, 119.78
188.509, 121.33
188.694, 127.99
188.709, 118.55
188.894, 123.87
188.909, 120.58
189.094, 123.61
189.109, 122.07
189.294, 117.70
189.309, 118.79
189.494, 123.70
189.509, 122.31
189.694, 120.49
189.709, 123.17
189.894, 124.15
189.909, 122.49
190.094, 121.35
190.109, 120.63
190.294, 123.91
190.309, 121.73
190.494, 119.82
190.509, 120.80
190.694, 122.37
190.709, 122.96
190.894, 123.40
190.909, 122.96
191.094, 126.10
191.109, 121.28
191.294, 122.72
191.309, 121.21
191.494, 124.32
191.509, 117.51
191.694, 126.96
191.709, 121.58
191.894, 124.23
191.909, 123.98
192.094, 117.12
192.109, 117.33
192.294, 123.61
192.309, 119.77
192.494, 121.70
192.509, 126.37
192.694, 122.42
192.709, 123.55
192.894, 122.98
192.909, 124.13
193.094, 122.88
193.109, 118.37
193.294, 117.50
193.309, 120.80
193.494, 122.56
193.509, 119.23
193.694, 121.14
193.709, 119.10
193.894, 121.84
193.909, 118.01
194.094, 125.75
194.109, 122.39
194.294, 121.28
194.309, 123.21
194.494, 117.84
194.509, 122.04
194.694, 119.73
194.709, 122.83
194.894, 119.29
194.909, 122.77
195.094, 120.37
195.109, 126.67
195.294, 118.92
195.309, 127.73
195.494, 122.69
195.509, 125.20
195.694, 119.53
195.709, 125.18
195.894, 123.18
195.909, 119.90
196.094, 118.12
196.109, 122.70
196.294, 119.49
196.309, 122.23
196.494, 121.44
196.509, 122.82
196.694, 121.50
196.709, 122.24
196.894, 120.68
196.909, 121.44
197.094, 120.80
197.109, 118.77
197.294, 121.22
197.309, 123.13
197.494, 110.98
197.509, 112.47
197.694, 125.96
197.709, 130.78
197.894, 158.84
197.909, 241.62
198.094, 174.58
198.109, 173.61
198.294, 147.66
198.309, 149.21
198.494, 136.93
198.509, 140.05
198.694, 144.71
198.709, 140.27
198.894, 147.24
198.909, 145.27
199.094, 140.87
199.109, 135.76
199.294, 127.92
199.309, 122.24
199.494, 131.77
199.509, 148.24
199.694, 135.21
199.709, 135.62
199.894, 153.32
199.909, 152.82
200.094, 157.85
200.109, 152.13
200.294, 158.13
200.309, 162.90
200.494, 158.63
200.509, 152.66
200.694, 163.82
200.709, 155.58
200.894, 159.49
200.909, 159.51
201.094, 162.28
201.109, 159.46
201.294, 153.27
201.309, 153.32
201.494, 156.06
201.509, 159.95
201.694, 160.64
201.709, 159.63
201.894, 157.29
201.909, 156.57
202.094, 165.04
202.109, 176.63
202.294, 160.98
202.309, 162.74
202.494, 156.99
202.509, 156.48
202.694, 162.92
202.709, 171.12
202.894, 155.57
202.909, 164.06
203.094, 158.10
203.109, 157.87
203.294, 152.84
203.309, 159.43
203.494, 160.99
203.509, 153.12
203.694, 153.82
203.709, 161.03
203.894, 155.66
203.909, 154.63
204.094, 158.90
204.109, 157.35
204.294, 164.69
204.309, 178.82
204.494, 158.75
204.509, 161.95
204.694, 161.12
204.709, 155.96
204.894, 157.05
204.909, 150.46
205.094, 150.49
205.109, 160.58
205.294, 167.04
205.309, 152.88
205.494, 160.03
205.509, 168.73
205.694, 158.99
205.709, 151.04
205.894, 162.86
205.909, 155.17
206.094, 184.17
206.109, 166.89
206.294, 167.73
206.309, 165.63
206.494, 157.60
206.509, 188.94
206.694, 162.30
206.709, 170.04
206.894, 163.79
206.909, 163.16
207.094, 167.06
207.109, 172.98
207.294, 164.33
207.309, 163.53
207.494, 155.51
207.509, 158.95
207.694, 169.19
207.709, 152.94
207.894, 151.90
207.909, 165.88
208.094, 159.36
208.109, 164.00
208.294, 160.71
208.309, 158.00
208.494, 169.11
208.509, 192.51
208.694, 155.24
208.709, 165.33
208.894, 165.95
208.909, 158.21
209.094, 159.71
209.109, 174.63
209.294, 163.22
209.309, 154.53
209.494, 155.63
209.509, 159.92
209.694, 161.22
209.709, 160.09
209.894, 162.03
209.909, 163.80
210.094, 162.47
210.109, 160.60
210.294, 164.41
210.309, 159.28
210.494, 162.09
210.509, 156.33
210.694, 173.00
210.709, 161.50
210.894, 162.44
210.909, 162.66
211.094, 166.40
211.109, 158.08
211.294, 168.09
211.309, 160.05
211.494, 158.05
211.509, 155.87
211.694, 168.13
211.709, 154.44
211.894, 156.47
211.909, 148.97
212.094, 156.73
212.109, 153.98
212.294, 154.68
212.309, 157.19
212.494, 154.00
212.509, 150.37
212.694, 150.96
212.709, 154.84
212.894, 157.64
212.909, 149.77
213.094, 153.55
213.109, 153.33
213.294, 150.01
213.309, 150.56
213.494, 147.86
213.509, 149.68
213.694, 151.78
213.709, 149.59
213.894, 151.34
213.909, 150.22
214.094, 142.61
214.109, 151.56
214.294, 149.77
214.309, 150.11
214.494, 147.65
214.509, 145.79
214.694, 150.41
214.709, 145.85
214.894, 151.31
214.909, 149.31
215.094, 146.14
215.109, 148.21
215.294, 156.05
215.309, 151.57
215.494, 147.59
215.509, 154.50
215.694, 147.07
215.709, 145.20
215.894, 147.31
215.909, 149.84
216.094, 146.76
216.109, 147.91
216.294, 151.16
216.309, 148.20
216.494, 150.11
216.509, 146.52
216.694, 154.00
216.709, 149.14
216.894, 147.21
216.909, 150.60
217.094, 151.92
217.109, 149.35
217.294, 147.69
217.309, 148.59
217.494, 126.81
217.509, 119.62
217.694, 124.82
217.709, 125.51
217.894, 119.17
217.909, 120.08
218.094, 124.01
218.109, 123.93
218.294, 126.86
218.309, 131.01
218.494, 138.28
218.509, 139.35
218.694, 141.77
218.709, 134.15
218.894, 140.67
218.909, 142.05
219.094, 144.92
219.109, 136.82
219.294, 133.00
219.309, 130.17
219.494, 154.29
219.509, 160.85
219.694, 154.05
219.709, 152.84
219.894, 162.28
219.909, 146.91
220.094, 165.41
220.109, 182.10
220.294, 148.53
220.309, 162.34
220.494, 159.81
220.509, 155.90
220.694, 161.05
220.709, 164.03
220.894, 158.03
220.909, 149.83
221.094, 154.31
221.109, 152.81
221.294, 163.54
221.309, 162.89
221.494, 160.19
221.509, 146.93
221.694, 153.54
221.709, 151.86
221.894, 154.75
221.909, 161.19
222.094, 150.39
222.109, 155.42
222.294, 163.39
222.309, 144.67
222.494, 144.65
222.509, 146.22
222.694, 143.47
222.709, 143.70
222.894, 143.72
222.909, 138.87
223.094, 141.80
223.109, 151.56
223.294, 143.89
223.309, 144.10
223.494, 141.64
223.509, 143.69
223.694, 141.95
223.709, 143.46
223.894, 143.89
223.909, 141.90
224.094, 146.81
224.109, 148.05
224.294, 146.65
224.309, 143.61
224.494, 144.30
224.509, 145.53
224.694, 144.76
224.709, 140.73
224.894, 143.05
224.909, 143.89
225.094, 142.55
225.109, 143.54
225.294, 144.60
225.309, 141.03
225.494, 140.13
225.509, 141.81
225.694, 142.11
225.709, 139.41
225.894, 134.11
225.909, 141.01
226.094, 152.24
226.109, 140.41
226.294, 148.97
226.309, 140.13
226.494, 146.86
226.509, 140.84
226.694, 148.63
226.709, 145.56
226.894, 147.35
226.909, 144.49
227.094, 146.66
227.109, 140.25
227.294, 147.45
227.309, 144.47
227.494, 146.46
227.509, 142.87
227.694, 145.90
227.709, 147.69
227.894, 144.47
227.909, 141.48
228.094, 140.15
228.109, 141.73
228.294, 140.11
228.309, 142.65
228.494, 143.55
228.509, 141.37
228.694, 147.03
228.709, 148.63
228.894, 145.77
228.909, 149.10
229.094, 142.77
229.109, 141.83
229.294, 141.60
229.309, 139.53
229.494, 147.34
229.509, 148.34
229.694, 147.83
229.709, 154.81
229.894, 149.83
229.909, 145.79
230.094, 148.25
230.109, 152.58
230.294, 149.30
230.309, 150.26
230.494, 143.26
230.509, 140.94
230.694, 142.76
230.709, 141.52
230.894, 144.50
230.909, 143.24
231.094, 139.55
231.109, 142.44
231.294, 145.56
231.309, 145.77
231.494, 146.23
231.509, 143.06
231.694, 147.65
231.709, 147.46
231.894, 139.64
231.909, 145.60
232.094, 145.57
232.109, 144.86
232.294, 143.00
232.309, 141.58
232.494, 144.59
232.509, 143.74
232.694, 143.36
232.709, 137.94
232.894, 144.79
232.909, 148.44
233.094, 148.03
233.109, 140.18
233.294, 144.32
233.309, 145.14
233.494, 139.36
233.509, 142.66
233.694, 138.51
233.709, 150.04
233.894, 141.79
233.909, 142.50
234.094, 141.13
234.109, 147.84
234.294, 145.45
234.309, 144.49
234.494, 144.19
234.509, 139.26
234.694, 147.46
234.709, 142.15
234.894, 141.39
234.909, 144.97
235.094, 139.11
235.109, 144.06
235.294, 144.80
235.309, 148.69
235.494, 145.21
235.509, 143.11
235.694, 148.11
235.709, 147.42
235.894, 147.67
235.909, 156.70
236.094, 147.06
236.109, 153.13
236.294, 147.46
236.309, 151.12
236.494, 142.55
236.509, 141.45
236.694, 142.96
236.709, 141.28
236.894, 146.57
236.909, 151.32
237.094, 146.22
237.109, 156.19
237.294, 138.10
237.309, 149.51
237.494, 115.37
237.509, 125.01
237.694, 116.79
237.709, 129.31
237.894, 123.86
237.909, 123.44
238.094, 117.24
238.109, 123.41
238.294, 130.25
238.309, 130.08
238.494, 131.05
238.509, 137.47
238.694, 135.01
238.709, 138.36
238.894, 142.70
238.909, 143.43
239.094, 128.45
239.109, 129.21
239.294, 131.06
239.309, 129.86
239.494, 159.93
239.509, 152.21
239.694, 181.81
239.709, 151.48
239.894, 163.15
239.909, 148.98
240.094, 150.28
240.109, 145.77
240.294, 151.76
240.309, 149.83
240.494, 158.04
240.509, 144.15
240.694, 149.30
240.709, 145.98
240.894, 149.42
240.909, 151.92
241.094, 154.94
241.109, 151.65
241.294, 154.79
241.309, 151.44
241.494, 152.32
241.509, 149.44
241.694, 150.81
241.709, 142.40
241.894, 142.94
241.909, 147.19
242.094, 142.68
242.109, 141.43
242.294, 137.19
242.309, 143.31
242.494, 144.05
242.509, 138.59
242.694, 144.58
242.709, 145.68
242.894, 143.25
242.909, 139.41
243.094, 143.65
243.109, 145.56
243.294, 146.61
243.309, 141.35
243.494, 143.20
243.509, 140.63
243.694, 140.10
243.709, 147.82
243.894, 140.54
243.909, 141.59
244.094, 142.42
244.109, 142.59
244.294, 148.06
244.309, 143.65
244.494, 140.99
244.509, 143.71
244.694, 147.67
244.709, 142.72
244.894, 147.30
244.909, 145.53
245.094, 149.06
245.109, 138.07
245.294, 151.72
245.309, 142.69
245.494, 143.48
245.509, 144.56
245.694, 142.90
245.709, 149.79
245.894, 146.74
245.909, 142.45
246.094, 141.63
246.109, 145.16
246.294, 146.52
246.309, 144.76
246.494, 147.13
246.509, 137.61
246.694, 146.43
246.709, 148.14
246.894, 140.72
246.909, 146.41
247.094, 144.04
247.109, 144.55
247.294, 149.25
247.309, 148.70
247.494, 143.93
247.509, 146.21
247.694, 149.37
247.709, 144.41
247.894, 146.98
247.909, 142.66
248.094, 149.80
248.109, 146.65
248.294, 147.35
248.309, 150.59
248.494, 142.75
248.509, 143.96
248.694, 145.85
248.709, 141.43
248.894, 140.83
248.909, 146.03
249.094, 147.94
249.109, 146.39
249.294, 147.89
249.309, 145.94
249.494, 144.29
249.509, 149.73
249.694, 151.59
249.709, 151.41
249.894, 144.68
249.909, 144.50
250.094, 149.80
250.109, 143.63
250.294, 143.20
250.309, 145.87
250.494, 149.54
250.509, 149.71
250.694, 148.18
250.709, 146.34
250.894, 146.49
250.909, 148.62
251.094, 153.12
251.109, 150.42
251.294, 146.44
251.309, 149.33
251.494, 151.95
251.509, 153.13
251.694, 143.04
251.709, 148.27
251.894, 153.33
251.909, 146.13
252.094, 142.68
252.109, 150.31
252.294, 146.71
252.309, 150.39
252.494, 142.62
252.509, 156.03
252.694, 152.07
252.709, 152.06
252.894, 149.75
252.909, 147.80
253.094, 146.40
253.109, 147.44
253.294, 153.43
253.309, 154.63
253.494, 152.40
253.509, 150.27
253.694, 150.45
253.709, 143.03
253.894, 152.03
253.909, 147.90
254.094, 148.52
254.109, 151.50
254.294, 147.72
254.309, 146.42
254.494, 148.48
254.509, 152.33
254.694, 146.16
254.709, 154.01
254.894, 147.19
254.909, 146.98
255.094, 152.60
255.109, 146.67
255.294, 138.72
255.309, 146.82
255.494, 151.17
255.509, 148.95
255.694, 150.47
255.709, 147.51
255.894, 156.06
255.909, 152.50
256.094, 147.90
256.109, 155.76
256.294, 147.38
256.309, 148.07
256.494, 151.75
256.509, 147.32
256.694, 144.77
256.709, 152.47
256.894, 153.01
256.909, 149.74
257.094, 149.32
257.109, 150.81
257.294, 145.85
257.309, 150.14
257.494, 147.82
257.509, 148.03
257.694, 149.84
257.709, 147.49
257.894, 153.26
257.909, 149.26
258.094, 152.93
258.109, 149.02
258.294, 148.69
258.309, 153.04
258.494, 150.67
258.509, 151.30
258.694, 150.12
258.709, 144.18
258.894, 152.25
258.909, 149.97
259.094, 150.18
259.109, 155.42
259.294, 148.42
259.309, 158.10
259.494, 149.49
259.509, 150.57
259.694, 150.45
259.709, 149.64
259.894, 147.87
259.909, 150.90
260.094, 150.75
260.109, 148.79
260.294, 150.36
260.309, 151.31
260.494, 151.81
260.509, 148.76
260.694, 151.90
260.709, 150.25
260.894, 155.31
260.909, 150.53
261.094, 149.95
261.109, 147.64
261.294, 152.60
261.309, 147.19
261.494, 149.86
