time (sec), voltage (V)
0.153, -0.49
0.155, -1.07
0.354, -0.99
0.356, -1.12
0.451, -0.61
0.452, -0.34
0.649, -0.74
0.652, -0.36
0.852, -0.37
0.853, -0.12
0.951, -0.23
0.954, -1.00
1.049, -0.73
1.051, -0.58
1.154, -1.00
1.154, -1.05
1.249, -0.71
1.251, -0.43
1.351, -0.17
1.352, -0.42
1.354, -0.92
1.356, -1.12
1.452, -0.35
1.453, -0.09
1.555, -0.93
1.556, -1.08
1.649, -0.77
1.652, -0.36
1.755, -0.98
1.756, -1.11
1.849, -0.80
1.851, -0.52
1.852, -0.30
1.853, -0.08
1.951, -0.18
1.956, -1.13
2.151, -0.17
2.155, -1.03
2.249, -0.70
2.250, -0.52
2.351, -0.21
2.353, -0.73
2.355, -0.98
2.356, -1.13
2.551, -0.20
2.555, -0.94
2.752, -0.22
2.752, -0.35
2.755, -0.89
2.756, -1.12
2.951, -0.18
2.954, -0.93
3.049, -0.79
3.051, -0.49
3.153, -0.64
3.155, -1.07
3.249, -0.74
3.252, -0.24
3.352, -0.44
3.355, -1.07
3.449, -0.78
3.451, -0.57
3.551, -0.20
3.552, -0.39
3.649, -0.81
3.651, -0.56
3.752, -0.45
3.753, -0.73
3.850, -0.50
3.851, -0.33
3.869, 3.17
3.872, 3.65
3.874, 4.07
3.937, 2.55
3.952, -0.38
3.954, -0.79
4.049, -0.74
4.050, -0.59
4.059, 1.07
4.145, 1.08
4.152, -0.36
4.154, -0.72
4.155, -0.93
4.156, -1.11
4.250, -0.52
4.252, -0.15
4.260, 1.35
4.343, 1.46
4.452, -0.31
4.452, -0.15
4.460, 1.38
4.543, 1.45
4.553, -0.48
4.554, -0.82
4.659, 1.22
4.744, 1.26
4.752, -0.23
4.754, -0.89
4.850, -0.56
4.850, -0.53
4.852, -0.29
4.852, -0.14
4.859, 1.14
4.944, 1.17
4.952, -0.47
4.956, -1.15
5.052, -0.30
5.053, -0.13
5.060, 1.33
5.144, 1.31
5.152, -0.31
5.155, -1.00
5.259, 1.16
5.259, 1.20
5.260, 1.46
5.344, 1.31
5.449, -0.73
5.449, -0.73
5.450, -0.54
5.453, -0.12
5.460, 1.27
5.544, 1.29
5.553, -0.74
5.555, -1.04
5.650, -0.59
5.652, -0.14
5.660, 1.31
5.744, 1.31
5.752, -0.45
5.754, -0.79
5.755, -0.92
5.756, -1.12
5.859, 1.20
5.943, 1.40
5.951, -0.20
5.953, -0.70
6.049, -0.74
6.051, -0.56
6.052, -0.28
6.052, -0.20
6.060, 1.41
6.144, 1.31
6.153, -0.55
6.153, -0.70
6.261, 1.46
6.343, 1.44
6.352, -0.45
6.354, -0.91
6.450, -0.55
6.452, -0.19
6.460, 1.42
6.544, 1.28
6.552, -0.30
6.552, -0.46
6.660, 1.28
6.743, 1.49
6.753, -0.88
6.755, -1.03
6.849, -0.68
6.850, -0.57
6.860, 1.31
6.943, 1.40
7.060, 1.30
7.143, 1.52
7.153, -0.52
7.153, -0.62
7.154, -1.02
7.156, -1.11
7.251, -0.52
7.252, -0.14
7.260, 1.45
7.343, 1.37
7.450, -0.72
7.450, -0.69
7.452, -0.29
7.452, -0.20
7.461, 1.49
7.544, 1.21
7.552, -0.40
7.554, -1.00
7.660, 1.41
7.743, 1.35
7.753, -0.52
7.755, -1.06
7.852, -0.35
7.853, -0.11
7.860, 1.28
7.943, 1.43
7.952, -0.46
7.955, -1.02
8.060, 1.36
8.143, 1.43
8.151, -0.23
8.152, -0.52
8.250, -0.67
8.251, -0.45
8.260, 1.31
8.343, 1.50
8.352, -0.45
8.354, -0.72
8.355, -1.04
8.355, -1.04
8.460, 1.41
8.544, 1.21
8.552, -0.44
8.554, -0.70
8.555, -0.91
8.555, -1.06
8.659, 1.25
8.744, 1.31
8.754, -0.89
8.754, -0.93
8.859, 1.26
8.944, 1.30
8.953, -0.73
8.955, -1.02
9.051, -0.62
9.052, -0.27
9.060, 1.44
9.143, 1.34
9.154, -0.77
9.154, -0.96
9.252, -0.32
9.253, -0.12
9.260, 1.44
9.343, 1.39
9.352, -0.30
9.353, -0.71
9.355, -0.96
9.356, -1.13
9.451, -0.35
9.453, -0.10
9.460, 1.30
9.544, 1.25
9.660, 1.44
9.743, 1.42
9.754, -0.92
9.756, -1.11
9.851, -0.52
9.853, -0.13
9.860, 1.30
9.943, 1.33
10.060, 1.41
10.143, 1.45
10.154, -0.82
10.155, -0.96
10.250, -0.53
10.252, -0.38
10.261, 1.46
10.343, 1.40
10.352, -0.47
10.354, -0.79
10.452, -0.33
10.453, -0.10
10.460, 1.27
10.543, 1.38
10.551, -0.19
10.554, -1.10
10.652, -0.32
10.653, -0.11
10.660, 1.27
10.743, 1.43
10.751, -0.28
10.752, -0.58
10.860, 1.37
10.944, 1.24
11.049, -0.70
11.050, -0.54
11.060, 1.42
11.144, 1.32
11.153, -0.73
11.155, -1.05
11.252, -0.35
11.253, -0.10
11.260, 1.40
11.344, 1.27
11.352, -0.41
11.354, -0.84
11.460, 1.35
11.544, 1.28
11.554, -0.95
11.554, -1.00
11.647, -1.19
11.647, -1.16
11.660, 1.45
11.744, 1.17
11.752, -0.46
11.754, -0.76
11.755, -0.91
11.756, -1.08
11.849, -0.69
11.850, -0.62
11.860, 1.43
11.944, 1.25
11.951, -0.25
11.956, -1.11
12.052, -0.32
12.052, -0.14
12.060, 1.40
12.143, 1.36
12.155, -0.91
12.156, -1.10
12.260, 1.29
12.344, 1.25
12.450, -0.54
12.452, -0.31
12.460, 1.35
12.543, 1.48
12.553, -0.42
12.553, -0.60
12.555, -0.99
12.556, -1.16
12.651, -0.50
12.652, -0.20
12.660, 1.30
12.744, 1.26
12.752, -0.38
12.756, -1.11
12.861, 1.56
12.943, 1.45
12.951, -0.24
12.954, -0.90
13.060, 1.29
13.144, 1.22
13.251, -0.38
13.253, -0.12
13.260, 1.29
13.344, 1.29
13.355, -1.04
13.356, -1.15
13.450, -0.56
13.452, -0.31
13.460, 1.34
13.544, 1.33
13.551, -0.26
13.552, -0.47
13.554, -0.83
13.555, -0.99
13.651, -0.57
13.651, -0.55
13.661, 1.47
13.743, 1.48
13.860, 1.37
13.943, 1.48
13.952, -0.29
13.956, -1.11
14.052, -0.27
14.053, -0.11
14.060, 1.41
14.143, 1.47
14.151, -0.19
14.156, -1.12
14.252, -0.26
14.253, -0.09
14.260, 1.36
14.344, 1.24
14.351, -0.24
14.353, -0.53
14.460, 1.30
14.543, 1.48
14.551, -0.21
14.552, -0.53
14.652, -0.26
14.652, -0.14
14.660, 1.36
14.743, 1.44
14.752, -0.37
14.754, -0.73
14.860, 1.42
14.943, 1.33
14.951, -0.21
14.953, -0.63
15.060, 1.40
15.143, 1.40
15.152, -0.45
15.156, -1.12
15.252, -0.27
15.253, -0.12
15.260, 1.33
15.345, 1.14
15.351, -0.22
15.352, -0.49
15.354, -0.71
15.354, -0.91
15.460, 1.27
15.543, 1.36
15.553, -0.85
15.556, -1.13
15.652, -0.33
15.652, -0.13
15.660, 1.30
15.743, 1.39
15.753, -0.51
15.753, -0.56
15.754, -1.00
15.756, -1.11
15.861, 1.49
15.943, 1.48
15.952, -0.42
15.954, -1.09
16.050, -0.53
16.052, -0.25
16.059, 1.25
16.145, 1.09
16.151, -0.22
16.153, -0.65
16.250, -0.52
16.252, -0.28
16.260, 1.35
16.343, 1.38
16.452, -0.28
16.452, -0.15
16.459, 1.25
16.543, 1.40
16.651, -0.52
16.651, -0.47
16.660, 1.31
16.744, 1.17
16.751, -0.23
16.753, -0.54
16.755, -1.13
16.755, -1.15
16.850, -0.57
16.853, -0.11
16.860, 1.32
16.943, 1.41
16.951, -0.21
16.954, -0.75
17.050, -0.64
17.052, -0.33
17.060, 1.41
17.144, 1.21
17.154, -1.03
17.154, -1.06
17.250, -0.51
17.252, -0.32
17.260, 1.40
17.344, 1.16
17.352, -0.26
17.352, -0.38
17.449, -0.80
17.451, -0.62
17.452, -0.31
17.452, -0.14
17.460, 1.31
17.543, 1.49
17.544, 1.25
17.544, 1.23
17.554, -0.96
17.554, -1.08
17.660, 1.36
17.743, 1.35
17.754, -0.98
17.754, -1.09
17.859, 1.24
17.943, 1.41
17.952, -0.36
17.952, -0.46
18.050, -0.63
18.052, -0.35
18.060, 1.27
18.144, 1.15
18.155, -0.91
18.156, -1.12
18.252, -0.29
18.253, -0.07
18.260, 1.42
18.344, 1.32
18.460, 1.41
18.544, 1.19
18.650, -0.54
18.652, -0.33
18.659, 1.16
18.743, 1.36
18.752, -0.49
18.755, -1.13
18.851, -0.52
18.853, -0.08
18.860, 1.29
18.943, 1.45
18.953, -0.47
18.954, -0.95
19.060, 1.27
19.144, 1.32
19.152, -0.27
19.156, -1.12
19.259, 1.14
19.343, 1.50
19.355, -0.96
19.356, -1.09
19.460, 1.27
19.543, 1.40
19.552, -0.40
19.556, -1.11
19.659, 1.15
19.743, 1.35
19.755, -0.99
19.756, -1.12
19.850, -0.63
19.852, -0.21
19.860, 1.38
19.944, 1.22
19.952, -0.45
19.955, -1.06
20.060, 1.41
20.143, 1.48
20.151, -0.20
20.152, -0.50
20.261, 1.51
20.342, 1.63
20.342, 1.62
20.343, 1.34
20.450, -0.51
20.453, -0.11
20.460, 1.43
20.544, 1.32
20.552, -0.45
20.554, -0.98
20.651, -0.58
20.651, -0.46
20.660, 1.33
20.744, 1.32
20.751, -0.22
20.752, -0.47
20.755, -0.88
20.756, -1.12
20.860, 1.31
20.943, 1.42
20.955, -1.00
20.955, -1.06
21.060, 1.45
21.143, 1.47
21.152, -0.27
21.155, -1.03
21.260, 1.43
21.343, 1.44
21.351, -0.24
21.352, -0.47
21.449, -0.75
21.452, -0.30
21.460, 1.32
21.544, 1.30
21.552, -0.43
21.555, -1.10
21.649, -0.81
21.651, -0.57
21.652, -0.31
21.653, -0.12
21.659, 1.12
21.743, 1.49
21.860, 1.28
21.944, 1.22
21.952, -0.45
21.955, -1.10
22.049, -0.69
22.050, -0.56
22.060, 1.43
22.143, 1.50
22.153, -0.76
22.155, -1.08
22.260, 1.34
22.261, 1.50
22.261, 1.56
22.343, 1.50
22.351, -0.19
22.353, -0.77
22.460, 1.30
22.544, 1.23
22.651, -0.51
22.652, -0.25
22.660, 1.32
22.743, 1.49
22.751, -0.24
22.754, -0.77
22.850, -0.57
22.852, -0.32
22.860, 1.42
22.943, 1.44
22.951, -0.18
22.952, -0.43
22.954, -0.87
22.956, -1.12
23.050, -0.53
23.052, -0.31
23.060, 1.45
23.143, 1.51
23.152, -0.48
23.154, -0.96
23.155, -1.01
23.156, -1.11
23.250, -0.56
23.252, -0.30
23.260, 1.39
23.343, 1.47
23.351, -0.22
23.354, -0.83
23.355, -1.04
23.355, -1.05
23.452, -0.34
23.453, -0.10
23.460, 1.40
23.544, 1.21
23.554, -0.75
23.555, -1.15
23.652, -0.31
23.652, -0.13
23.660, 1.43
23.744, 1.23
23.852, -0.32
23.852, -0.14
23.860, 1.36
23.943, 1.48
23.951, -0.26
23.952, -0.47
23.954, -0.80
23.955, -1.07
24.050, -0.57
24.052, -0.25
24.060, 1.45
24.143, 1.33
24.251, -0.52
24.251, -0.48
24.260, 1.30
24.343, 1.37
24.450, -0.55
24.451, -0.34
24.460, 1.27
24.543, 1.44
24.651, -0.57
24.652, -0.35
24.660, 1.32
24.743, 1.35
24.850, -0.60
24.852, -0.31
24.860, 1.36
24.943, 1.41
24.953, -0.41
24.955, -1.11
25.050, -0.57
25.052, -0.13
25.060, 1.36
25.143, 1.42
25.252, -0.30
25.252, -0.17
25.260, 1.41
25.343, 1.38
25.355, -0.99
25.356, -1.07
25.450, -0.54
25.452, -0.14
25.460, 1.35
25.543, 1.44
25.552, -0.22
25.552, -0.35
25.555, -0.98
25.556, -1.11
25.650, -0.62
25.652, -0.25
25.660, 1.38
25.743, 1.40
25.860, 1.40
25.943, 1.45
25.953, -0.79
25.955, -1.04
26.061, 1.49
26.143, 1.45
26.153, -0.67
26.155, -1.09
26.260, 1.29
26.344, 1.24
26.352, -0.56
26.354, -0.98
26.354, -1.06
26.356, -1.12
26.452, -0.31
26.453, -0.10
26.460, 1.42
26.543, 1.37
26.551, -0.24
26.553, -0.51
26.554, -0.79
26.554, -0.94
26.556, -1.17
26.556, -1.17
26.652, -0.36
26.653, -0.10
26.660, 1.30
26.744, 1.24
26.752, -0.29
26.752, -0.53
26.753, -0.85
26.755, -0.99
26.851, -0.40
26.852, -0.14
26.860, 1.43
26.943, 1.48
26.951, -0.23
26.952, -0.52
27.060, 1.27
27.144, 1.29
27.152, -0.30
27.152, -0.35
27.250, -0.62
27.253, -0.12
27.260, 1.29
27.343, 1.49
27.351, -0.20
27.356, -1.07
27.450, -0.51
27.453, -0.09
27.460, 1.43
27.544, 1.30
27.551, -0.22
27.553, -0.59
27.555, -0.93
27.556, -1.12
27.652, -0.34
27.653, -0.09
27.660, 1.44
27.743, 1.39
27.753, -0.57
27.753, -0.73
27.850, -0.55
27.852, -0.30
27.860, 1.29
27.943, 1.48
27.951, -0.21
27.952, -0.49
27.954, -0.90
27.955, -1.10
28.052, -0.32
28.052, -0.14
28.061, 1.46
28.143, 1.36
28.260, 1.28
28.343, 1.36
28.355, -1.12
28.355, -1.16
28.460, 1.41
28.544, 1.27
28.554, -0.86
28.555, -1.02
28.660, 1.36
28.743, 1.45
28.751, -0.22
28.752, -0.46
28.860, 1.30
28.943, 1.35
29.059, 1.26
29.143, 1.44
29.155, -0.97
29.155, -1.02
29.250, -0.56
29.253, -0.11
29.260, 1.29
29.343, 1.37
29.351, -0.25
29.356, -1.12
29.460, 1.41
29.544, 1.29
29.554, -0.84
29.555, -1.10
29.659, 1.25
29.744, 1.23
29.852, -0.27
29.852, -0.20
29.860, 1.31
29.944, 1.26
29.954, -0.66
29.956, -1.14
30.060, 1.42
30.143, 1.43
30.151, -0.20
30.152, -0.36
30.154, -0.99
30.156, -1.11
30.260, 1.36
30.343, 1.44
30.352, -0.35
30.354, -0.86
30.452, -0.34
30.453, -0.11
30.460, 1.41
30.544, 1.26
30.554, -0.94
30.554, -0.99
30.660, 1.41
30.743, 1.44
30.751, -0.23
30.753, -0.65
30.754, -0.84
30.756, -1.09
30.852, -0.29
30.853, -0.11
30.860, 1.29
30.943, 1.38
30.951, -0.27
30.952, -0.44
30.954, -0.65
30.954, -0.86
31.060, 1.42
31.143, 1.37
31.153, -0.61
31.156, -1.11
31.250, -0.62
31.253, -0.08
31.259, 1.24
31.344, 1.24
31.351, -0.18
31.352, -0.41
31.449, -0.80
31.451, -0.59
31.460, 1.34
31.544, 1.28
31.551, -0.25
31.555, -0.91
31.660, 1.38
31.744, 1.29
31.752, -0.54
31.753, -0.71
31.852, -0.29
31.852, -0.18
31.860, 1.39
31.943, 1.40
31.951, -0.20
31.952, -0.44
32.060, 1.34
32.143, 1.41
32.152, -0.32
32.152, -0.49
32.250, -0.55
32.252, -0.31
32.260, 1.35
32.343, 1.35
32.355, -0.99
32.356, -1.11
32.460, 1.28
32.544, 1.15
32.551, -0.21
32.552, -0.47
32.553, -0.65
32.556, -1.11
32.652, -0.23
32.652, -0.16
32.661, 1.48
32.744, 1.21
32.752, -0.47
32.754, -1.05
32.859, 1.26
32.944, 1.21
32.953, -0.45
32.953, -0.54
33.059, 1.26
33.144, 1.28
33.152, -0.52
33.155, -1.07
33.252, -0.26
33.253, -0.11
33.260, 1.31
33.343, 1.36
33.355, -0.94
33.356, -1.11
33.459, 1.23
33.543, 1.43
33.553, -0.77
33.555, -0.99
33.660, 1.36
33.744, 1.28
33.849, -0.82
33.851, -0.53
33.860, 1.27
33.944, 1.31
33.952, -0.32
33.954, -0.81
33.954, -0.95
33.956, -1.09
34.059, 1.17
34.143, 1.37
34.152, -0.34
34.154, -0.84
34.154, -0.98
34.155, -1.13
34.250, -0.57
34.252, -0.23
34.259, 1.13
34.343, 1.35
34.352, -0.48
34.354, -0.94
34.459, 1.19
34.544, 1.30
34.552, -0.30
34.556, -1.11
34.660, 1.31
34.743, 1.37
34.753, -0.68
34.755, -0.99
34.852, -0.31
34.853, -0.12
34.860, 1.30
34.943, 1.36
34.951, -0.20
34.952, -0.42
34.955, -0.95
34.956, -1.12
35.051, -0.62
35.051, -0.46
35.060, 1.27
35.144, 1.27
35.152, -0.24
35.152, -0.31
35.260, 1.31
35.343, 1.35
35.460, 1.26
35.544, 1.21
35.551, -0.19
35.552, -0.38
35.555, -0.99
35.556, -1.12
35.650, -0.54
35.653, -0.07
35.660, 1.38
35.743, 1.36
35.752, -0.21
35.755, -0.99
35.860, 1.29
35.944, 1.19
35.952, -0.37
35.955, -1.03
36.051, -0.53
36.051, -0.36
36.060, 1.42
36.143, 1.39
36.155, -1.01
36.155, -1.03
36.260, 1.33
36.343, 1.46
36.352, -0.21
36.352, -0.36
36.354, -0.96
36.355, -1.09
36.451, -0.59
36.452, -0.33
36.460, 1.31
36.544, 1.18
36.551, -0.20
36.555, -1.06
36.650, -0.71
36.650, -0.70
36.660, 1.28
36.744, 1.19
36.752, -0.32
36.752, -0.50
36.859, 1.22
36.943, 1.47
37.060, 1.37
37.144, 1.28
37.152, -0.39
37.156, -1.12
37.260, 1.40
37.343, 1.44
37.354, -0.97
37.356, -1.14
37.450, -0.52
37.452, -0.31
37.459, 1.15
37.543, 1.37
37.551, -0.23
37.554, -1.06
37.660, 1.31
37.744, 1.21
37.751, -0.20
37.752, -0.47
37.753, -0.77
37.755, -1.08
37.849, -0.69
37.850, -0.50
37.852, -0.27
37.852, -0.17
37.860, 1.38
37.944, 1.22
38.052, -0.19
38.052, -0.19
38.059, 1.16
38.059, 1.18
38.060, 1.40
38.143, 1.36
38.151, -0.22
38.152, -0.42
38.260, 1.33
38.343, 1.43
38.351, -0.22
38.354, -1.02
38.450, -0.55
38.450, -0.51
38.460, 1.39
38.544, 1.17
38.651, -0.57
38.652, -0.31
38.660, 1.43
38.744, 1.19
38.860, 1.37
38.944, 1.20
38.952, -0.30
38.953, -0.59
39.049, -0.75
39.052, -0.31
39.060, 1.41
39.144, 1.25
39.152, -0.36
39.156, -1.11
39.250, -0.54
39.252, -0.28
39.260, 1.27
39.344, 1.17
39.352, -0.42
39.354, -0.79
39.355, -0.96
39.356, -1.12
39.451, -0.52
39.451, -0.40
39.459, 1.25
39.544, 1.18
39.552, -0.43
39.554, -0.92
39.650, -0.57
39.652, -0.35
39.659, 1.17
39.744, 1.26
39.751, -0.23
39.752, -0.49
39.755, -1.05
39.755, -1.08
39.849, -0.75
39.850, -0.62
39.860, 1.36
39.943, 1.34
39.953, -0.59
39.953, -0.74
40.060, 1.41
40.143, 1.33
40.152, -0.39
40.155, -1.08
40.260, 1.40
40.343, 1.39
40.352, -0.26
40.352, -0.33
40.354, -0.77
40.355, -0.95
40.460, 1.38
40.544, 1.31
40.555, -0.95
40.556, -1.09
40.649, -0.71
40.653, -0.10
40.660, 1.31
40.743, 1.35
40.751, -0.21
40.754, -0.95
40.850, -0.59
40.852, -0.28
40.860, 1.31
40.944, 1.28
40.953, -0.44
40.954, -0.68
41.059, 1.26
41.144, 1.29
41.151, -0.27
41.152, -0.56
41.260, 1.30
41.344, 1.22
41.354, -0.91
41.356, -1.11
41.460, 1.38
41.543, 1.43
41.554, -0.77
41.556, -1.16
41.660, 1.39
41.744, 1.30
41.752, -0.48
41.753, -0.73
41.852, -0.28
41.853, -0.12
41.860, 1.29
41.944, 1.19
41.951, -0.23
41.954, -0.83
42.060, 1.30
42.144, 1.26
42.151, -0.21
42.153, -0.72
42.250, -0.67
42.250, -0.60
42.260, 1.42
42.344, 1.33
42.450, -0.58
42.452, -0.13
42.460, 1.40
42.544, 1.19
42.554, -1.01
42.556, -1.11
42.652, -0.37
42.653, -0.10
42.659, 1.21
42.743, 1.43
42.860, 1.40
42.944, 1.24
42.952, -0.46
42.954, -0.72
43.060, 1.39
43.144, 1.20
43.151, -0.17
43.154, -0.88
43.155, -0.98
43.156, -1.11
43.252, -0.35
43.253, -0.11
43.260, 1.27
43.343, 1.43
43.449, -0.79
43.451, -0.58
43.460, 1.39
43.544, 1.26
43.659, 1.16
43.659, 1.20
43.660, 1.41
43.744, 1.20
43.754, -0.81
43.756, -1.16
43.860, 1.41
43.944, 1.29
44.060, 1.32
44.143, 1.41
44.153, -0.50
44.153, -0.63
44.260, 1.37
44.343, 1.44
44.352, -0.28
44.354, -0.73
44.460, 1.36
44.543, 1.36
44.551, -0.23
44.552, -0.44
44.660, 1.32
44.743, 1.44
44.752, -0.32
44.752, -0.44
44.850, -0.50
44.852, -0.25
44.859, 1.23
44.944, 1.17
44.951, -0.24
44.952, -0.55
44.954, -0.97
44.956, -1.14
45.052, -0.26
45.052, -0.14
45.060, 1.27
45.144, 1.17
45.151, -0.24
45.154, -0.73
45.155, -0.93
45.155, -1.00
45.251, -0.54
45.251, -0.41
45.260, 1.44
45.343, 1.43
45.351, -0.21
45.354, -0.82
45.450, -0.56
45.452, -0.23
45.460, 1.29
45.544, 1.32
45.551, -0.20
45.553, -0.81
45.555, -1.00
45.556, -1.11
45.647, -1.21
45.647, -1.16
45.652, -0.37
45.653, -0.11
45.660, 1.35
45.743, 1.42
45.851, -0.46
45.851, -0.33
45.860, 1.32
45.944, 1.27
45.953, -0.73
45.955, -1.06
46.060, 1.35
46.144, 1.23
46.151, -0.23
46.152, -0.48
46.250, -0.59
46.253, -0.11
46.260, 1.28
46.343, 1.46
46.352, -0.47
46.354, -0.70
46.450, -0.56
46.452, -0.30
46.460, 1.28
46.544, 1.22
46.650, -0.61
46.652, -0.15
46.660, 1.27
46.744, 1.18
46.751, -0.25
46.752, -0.48
46.860, 1.32
46.943, 1.38
47.052, -0.30
47.052, -0.12
47.060, 1.39
47.143, 1.34
47.153, -0.69
47.155, -1.03
47.250, -0.52
47.252, -0.35
47.260, 1.37
47.344, 1.33
47.351, -0.24
47.354, -1.09
47.452, -0.22
47.452, -0.15
47.460, 1.37
47.544, 1.17
47.554, -0.95
47.556, -1.11
47.660, 1.40
47.743, 1.42
47.755, -1.10
47.755, -1.11
47.860, 1.33
47.944, 1.22
47.953, -0.84
47.954, -1.07
48.050, -0.57
48.052, -0.30
48.060, 1.40
48.144, 1.23
48.260, 1.28
48.345, 1.09
48.353, -0.50
48.354, -0.77
48.355, -1.02
48.355, -1.05
48.450, -0.58
48.452, -0.22
48.459, 1.22
48.543, 1.35
48.554, -0.75
48.555, -1.04
48.650, -0.70
48.650, -0.61
48.659, 1.26
48.743, 1.48
48.755, -0.92
48.756, -1.10
48.860, 1.41
48.944, 1.18
48.951, -0.22
48.953, -0.51
48.953, -0.70
48.956, -1.13
49.052, -0.24
49.052, -0.16
49.060, 1.27
49.143, 1.40
49.153, -0.47
49.155, -0.97
49.251, -0.42
49.253, -0.10
49.260, 1.27
49.343, 1.39
49.351, -0.24
49.354, -0.90
49.354, -0.97
49.356, -1.10
49.450, -0.65
49.453, -0.10
49.460, 1.38
49.544, 1.28
49.551, -0.21
49.553, -0.72
49.659, 1.21
49.744, 1.14
49.752, -0.36
49.754, -0.88
49.851, -0.45
49.851, -0.45
49.860, 1.28
49.943, 1.37
49.951, -0.20
49.952, -0.39
50.050, -0.55
50.053, -0.11
50.060, 1.27
50.144, 1.17
50.155, -0.95
50.156, -1.07
50.260, 1.38
50.345, 1.04
50.452, -0.32
50.452, -0.16
50.459, 1.26
50.545, 1.05
50.650, -0.57
50.652, -0.12
50.660, 1.37
50.743, 1.42
50.752, -0.39
50.754, -0.96
50.859, 1.25
50.944, 1.32
50.945, 1.06
50.945, 1.04
50.952, -0.42
50.954, -0.73
50.955, -1.00
50.955, -1.01
51.049, -0.71
51.052, -0.35
51.060, 1.44
51.143, 1.44
51.152, -0.43
51.154, -0.79
51.155, -0.99
51.155, -1.06
51.260, 1.29
51.343, 1.38
51.353, -0.41
51.355, -1.05
51.451, -0.49
51.453, -0.08
51.460, 1.26
51.544, 1.19
51.555, -0.95
51.556, -1.11
51.652, -0.27
51.652, -0.12
51.660, 1.36
51.744, 1.17
51.753, -0.75
51.754, -1.10
51.850, -0.60
51.852, -0.34
51.860, 1.28
51.943, 1.45
51.951, -0.22
51.952, -0.49
51.955, -0.91
51.956, -1.12
52.059, 1.20
52.143, 1.35
52.151, -0.23
52.154, -0.69
52.251, -0.56
52.251, -0.49
52.260, 1.26
52.344, 1.19
52.354, -0.86
52.355, -1.02
52.450, -0.68
52.452, -0.34
52.459, 1.21
52.543, 1.52
52.552, -0.50
52.553, -0.71
52.555, -0.91
52.556, -1.10
52.652, -0.34
52.653, -0.12
52.660, 1.29
52.744, 1.25
52.751, -0.25
52.752, -0.45
52.850, -0.56
52.852, -0.37
52.859, 1.12
52.943, 1.45
52.953, -0.61
52.956, -1.12
53.051, -0.35
53.053, -0.08
53.060, 1.37
53.143, 1.48
53.154, -0.97
53.154, -1.09
53.250, -0.63
53.252, -0.33
53.259, 1.14
53.343, 1.37
53.351, -0.18
53.354, -1.09
53.459, 1.25
53.543, 1.47
53.544, 1.25
53.544, 1.24
53.552, -0.48
53.556, -1.08
53.651, -0.36
53.652, -0.13
53.659, 1.12
53.743, 1.42
53.752, -0.21
53.752, -0.39
53.755, -0.95
53.756, -1.11
53.852, -0.31
53.853, -0.07
53.860, 1.27
53.944, 1.21
53.954, -0.98
53.956, -1.09
54.059, 1.26
54.143, 1.50
54.152, -0.28
54.152, -0.50
54.154, -0.85
54.156, -1.11
54.260, 1.30
54.343, 1.47
54.352, -0.57
54.354, -0.95
54.450, -0.54
54.451, -0.38
54.459, 1.26
54.543, 1.47
54.552, -0.25
54.552, -0.31
54.554, -0.87
54.555, -1.05
54.660, 1.34
54.744, 1.32
54.754, -0.86
54.756, -1.11
54.859, 1.15
54.944, 1.31
54.951, -0.27
54.952, -0.52
54.954, -0.88
54.954, -1.06
55.050, -0.54
55.052, -0.14
55.059, 1.14
55.144, 1.27
55.251, -0.56
55.251, -0.48
55.260, 1.29
55.344, 1.31
55.354, -0.97
55.354, -1.02
55.452, -0.27
55.452, -0.13
55.460, 1.41
55.544, 1.30
55.552, -0.23
55.552, -0.52
55.553, -0.82
55.554, -1.03
55.650, -0.61
55.652, -0.24
55.659, 1.10
55.660, 1.35
55.660, 1.37
55.744, 1.30
55.752, -0.40
55.754, -0.85
55.850, -0.52
55.852, -0.23
55.860, 1.41
55.943, 1.35
55.953, -0.52
55.953, -0.56
56.050, -0.53
56.052, -0.34
56.060, 1.30
56.143, 1.48
56.155, -0.96
56.155, -1.03
56.259, 1.14
56.344, 1.21
56.450, -0.64
56.451, -0.52
56.459, 1.14
56.459, 1.24
56.460, 1.41
56.543, 1.46
56.554, -0.92
56.555, -1.09
56.650, -0.66
56.652, -0.36
56.659, 1.14
56.743, 1.38
56.752, -0.27
56.752, -0.35
56.754, -0.76
56.754, -0.95
56.850, -0.55
56.851, -0.41
56.859, 1.12
56.944, 1.28
56.952, -0.21
56.954, -1.08
57.050, -0.64
57.052, -0.32
57.059, 1.22
57.144, 1.26
57.259, 1.11
57.344, 1.26
57.354, -0.88
57.354, -0.94
57.452, -0.24
57.452, -0.18
57.460, 1.38
57.543, 1.43
57.555, -1.03
57.556, -1.16
57.650, -0.49
57.652, -0.35
57.659, 1.18
57.744, 1.33
57.849, -0.81
57.851, -0.65
57.860, 1.33
57.944, 1.32
58.060, 1.32
58.143, 1.41
58.152, -0.48
58.154, -0.98
58.251, -0.41
58.253, -0.11
58.260, 1.29
58.344, 1.26
58.355, -0.93
58.356, -1.13
58.452, -0.22
58.452, -0.19
58.460, 1.41
58.544, 1.25
58.551, -0.21
58.552, -0.47
58.649, -0.71
58.650, -0.62
58.660, 1.30
58.744, 1.28
58.860, 1.37
58.944, 1.23
58.953, -0.47
58.956, -1.13
59.060, 1.33
59.143, 1.39
59.152, -0.44
59.154, -0.72
59.250, -0.60
59.252, -0.35
59.260, 1.28
59.343, 1.44
59.355, -0.96
59.355, -1.06
59.452, -0.30
59.452, -0.19
59.459, 1.23
59.544, 1.28
59.555, -0.93
59.556, -1.13
59.660, 1.45
59.744, 1.27
59.755, -0.94
59.755, -1.07
59.852, -0.29
59.853, -0.12
59.860, 1.36
59.943, 1.44
59.952, -0.55
59.954, -0.93
60.050, -0.63
60.052, -0.29
60.059, 1.26
60.144, 1.27
60.151, -0.21
60.152, -0.45
60.250, -0.61
60.253, -0.11
60.260, 1.38
60.344, 1.27
60.460, 1.31
60.543, 1.41
60.552, -0.37
60.554, -0.69
60.650, -0.58
60.652, -0.27
60.660, 1.43
60.744, 1.23
60.753, -0.53
60.754, -0.74
60.849, -0.75
60.851, -0.45
60.860, 1.31
60.943, 1.37
60.951, -0.27
60.952, -0.59
60.955, -0.90
60.956, -1.11
61.052, -0.35
61.053, -0.11
61.060, 1.29
61.144, 1.29
61.260, 1.33
61.343, 1.43
61.352, -0.43
61.353, -0.70
61.355, -0.95
61.355, -1.03
61.450, -0.62
61.452, -0.19
61.460, 1.39
61.543, 1.45
61.552, -0.40
61.554, -0.95
61.554, -0.99
61.556, -1.20
61.652, -0.34
61.652, -0.15
61.659, 1.25
61.743, 1.44
61.752, -0.37
61.754, -0.83
61.850, -0.57
61.852, -0.26
61.860, 1.38
61.943, 1.44
61.951, -0.24
61.952, -0.49
61.955, -0.95
61.955, -1.05
62.060, 1.34
62.144, 1.20
62.151, -0.21
62.152, -0.53
62.153, -0.83
62.154, -1.08
62.260, 1.27
62.343, 1.34
62.353, -0.46
62.353, -0.60
62.460, 1.33
62.544, 1.20
62.553, -0.43
62.554, -0.79
62.660, 1.37
62.744, 1.26
62.752, -0.45
62.756, -1.19
62.852, -0.33
62.853, -0.10
62.860, 1.39
62.943, 1.40
62.953, -0.49
62.953, -0.70
63.052, -0.27
63.052, -0.14
63.060, 1.32
63.143, 1.41
63.151, -0.25
63.152, -0.58
63.154, -0.90
63.156, -1.10
63.260, 1.29
63.343, 1.38
63.460, 1.28
63.543, 1.39
63.650, -0.56
63.652, -0.20
63.660, 1.40
63.744, 1.20
63.752, -0.49
63.754, -0.93
63.850, -0.62
63.850, -0.59
63.860, 1.38
63.944, 1.21
63.953, -0.69
63.955, -0.99
64.060, 1.32
64.144, 1.27
64.151, -0.21
64.153, -0.74
64.153, -0.81
64.154, -1.05
64.260, 1.32
64.344, 1.28
64.352, -0.48
64.353, -0.73
64.460, 1.28
64.543, 1.39
64.660, 1.37
64.744, 1.31
64.751, -0.19
64.752, -0.48
64.753, -0.81
64.755, -1.05
64.860, 1.34
64.944, 1.29
64.951, -0.22
64.952, -0.40
64.954, -0.83
64.956, -1.13
65.060, 1.28
65.144, 1.33
65.151, -0.22
65.152, -0.50
65.252, -0.36
65.253, -0.10
65.260, 1.35
65.343, 1.39
65.352, -0.37
65.354, -0.76
65.354, -0.84
65.356, -1.10
65.450, -0.58
65.452, -0.35
65.460, 1.27
65.543, 1.38
65.551, -0.25
65.552, -0.57
65.554, -0.98
65.555, -1.07
65.660, 1.27
65.744, 1.21
65.752, -0.53
65.754, -0.92
65.755, -1.08
65.755, -1.15
65.860, 1.41
65.943, 1.38
65.952, -0.43
65.954, -0.81
66.060, 1.39
66.144, 1.26
66.151, -0.27
66.154, -0.76
66.259, 1.15
66.259, 1.21
66.260, 1.41
66.344, 1.28
66.352, -0.52
66.353, -0.72
66.355, -0.89
66.356, -1.11
66.452, -0.34
66.453, -0.13
66.460, 1.40
66.543, 1.36
66.553, -0.91
66.554, -1.09
66.650, -0.61
66.652, -0.14
66.660, 1.39
66.743, 1.37
66.752, -0.44
66.753, -0.78
66.852, -0.32
66.852, -0.15
66.860, 1.39
66.943, 1.35
67.060, 1.29
67.144, 1.24
67.151, -0.25
67.154, -0.71
67.155, -0.97
67.155, -0.99
67.260, 1.31
67.344, 1.32
67.354, -0.89
67.356, -1.15
67.451, -0.57
67.453, -0.10
67.460, 1.31
67.544, 1.21
67.551, -0.23
67.552, -0.43
67.553, -0.78
67.554, -1.05
67.652, -0.32
67.653, -0.12
67.660, 1.26
67.743, 1.38
67.850, -0.60
67.852, -0.29
67.860, 1.35
67.944, 1.17
67.951, -0.22
67.952, -0.49
67.954, -0.81
67.956, -1.15
68.050, -0.57
68.051, -0.35
68.059, 1.22
68.143, 1.35
68.151, -0.19
68.152, -0.40
68.153, -0.67
68.155, -0.99
68.260, 1.34
68.344, 1.23
68.352, -0.32
68.352, -0.32
68.353, -0.74
68.355, -1.01
68.452, -0.30
68.453, -0.13
68.460, 1.31
68.544, 1.29
68.551, -0.20
68.553, -0.65
68.660, 1.31
68.744, 1.14
68.752, -0.46
68.756, -1.12
68.852, -0.26
68.852, -0.15
68.860, 1.38
68.944, 1.32
68.953, -0.53
68.953, -0.66
68.955, -0.92
68.956, -1.11
69.051, -0.48
69.051, -0.35
69.060, 1.29
69.143, 1.44
69.153, -0.67
69.155, -1.02
69.260, 1.39
69.344, 1.28
69.353, -0.59
69.356, -1.10
69.460, 1.39
69.544, 1.32
69.551, -0.23
69.554, -0.92
69.660, 1.39
69.744, 1.32
69.752, -0.29
69.752, -0.45
69.753, -0.73
69.756, -1.08
69.850, -0.59
69.851, -0.39
69.860, 1.28
69.944, 1.26
69.951, -0.21
69.953, -0.44
69.955, -0.87
69.955, -1.05
70.051, -0.50
70.053, -0.12
70.059, 1.25
70.144, 1.29
70.154, -0.72
70.154, -0.83
70.260, 1.28
70.344, 1.20
70.351, -0.18
70.354, -0.93
70.460, 1.37
70.543, 1.43
70.553, -0.45
70.554, -0.84
70.554, -0.96
70.556, -1.11
70.660, 1.41
70.744, 1.23
70.753, -0.43
70.753, -0.55
70.850, -0.56
70.853, -0.12
70.860, 1.38
70.943, 1.37
70.951, -0.26
70.952, -0.48
71.050, -0.60
71.053, -0.13
71.060, 1.32
71.143, 1.34
71.155, -1.00
71.156, -1.09
71.251, -0.53
71.253, -0.11
71.260, 1.29
71.343, 1.38
71.460, 1.28
71.545, 1.13
71.551, -0.22
71.552, -0.53
71.652, -0.28
71.652, -0.10
71.660, 1.35
71.744, 1.26
71.752, -0.28
71.754, -0.68
71.755, -0.97
71.755, -1.07
71.859, 1.24
71.944, 1.17
71.955, -0.96
71.956, -1.09
72.060, 1.40
72.144, 1.29
72.153, -0.82
72.155, -1.09
72.260, 1.27
72.344, 1.17
72.351, -0.18
72.356, -1.11
72.460, 1.27
72.544, 1.19
72.555, -0.99
72.555, -1.07
72.652, -0.41
72.653, -0.10
72.659, 1.18
72.743, 1.44
72.752, -0.40
72.754, -0.99
72.754, -1.00
72.756, -1.12
72.860, 1.26
72.944, 1.29
72.952, -0.28
72.953, -0.71
72.955, -1.03
72.955, -1.04
73.050, -0.57
73.053, -0.11
73.059, 1.24
73.144, 1.23
73.151, -0.20
73.152, -0.47
73.250, -0.56
73.251, -0.33
73.259, 1.24
73.344, 1.22
73.352, -0.41
73.354, -0.72
73.355, -0.95
73.356, -1.12
73.450, -0.63
73.452, -0.29
73.460, 1.26
73.544, 1.14
73.551, -0.17
73.553, -0.61
73.651, -0.60
73.651, -0.51
73.659, 1.16
73.743, 1.36
73.753, -0.68
73.755, -1.03
73.860, 1.40
73.944, 1.22
73.955, -0.90
73.956, -1.12
74.060, 1.31
74.144, 1.18
74.153, -0.71
74.155, -1.08
74.252, -0.21
74.252, -0.12
74.259, 1.21
74.344, 1.30
74.353, -0.66
74.355, -1.11
74.452, -0.29
74.453, -0.11
74.460, 1.29
74.544, 1.30
74.652, -0.21
74.652, -0.15
74.660, 1.27
74.744, 1.21
74.754, -0.99
74.754, -1.07
74.859, 1.16
74.944, 1.27
74.952, -0.29
74.952, -0.43
75.050, -0.62
75.053, -0.11
75.059, 1.24
75.144, 1.31
75.151, -0.18
75.153, -0.43
75.250, -0.59
75.251, -0.46
75.260, 1.36
75.344, 1.31
75.352, -0.36
75.354, -0.82
75.355, -1.02
75.355, -1.05
75.451, -0.69
75.452, -0.40
75.459, 1.22
75.544, 1.24
75.552, -0.38
75.554, -0.78
75.650, -0.56
75.652, -0.15
75.660, 1.38
75.743, 1.37
75.752, -0.41
75.755, -1.09
75.852, -0.29
75.852, -0.14
75.859, 1.21
75.944, 1.24
75.953, -0.77
75.955, -1.11
76.050, -0.61
76.052, -0.31
76.060, 1.29
76.144, 1.33
76.259, 1.15
76.343, 1.35
76.355, -0.93
76.356, -1.12
76.460, 1.37
76.543, 1.41
76.554, -0.97
76.555, -1.04
76.659, 1.25
76.744, 1.19
76.751, -0.19
76.752, -0.59
76.753, -0.89
76.755, -1.11
76.850, -0.63
76.852, -0.30
76.859, 1.23
76.944, 1.29
76.952, -0.37
76.954, -1.01
77.051, -0.55
77.051, -0.40
77.059, 1.26
77.144, 1.19
77.152, -0.29
77.154, -1.03
77.252, -0.28
77.252, -0.20
77.259, 1.20
77.344, 1.15
77.352, -0.36
77.352, -0.45
77.460, 1.27
77.544, 1.16
77.555, -0.90
77.556, -1.12
77.650, -0.48
77.651, -0.30
77.660, 1.31
77.744, 1.21
77.752, -0.37
77.754, -0.80
77.755, -0.96
77.756, -1.12
77.850, -0.68
77.851, -0.35
77.859, 1.16
77.943, 1.35
77.953, -0.85
77.955, -1.05
78.052, -0.26
78.052, -0.22
78.059, 1.16
78.144, 1.17
78.152, -0.23
78.152, -0.32
78.153, -0.67
78.156, -1.13
78.259, 1.24
78.344, 1.21
78.351, -0.16
78.356, -1.12
78.451, -0.54
78.451, -0.46
78.459, 1.17
78.543, 1.36
78.652, -0.29
78.653, -0.14
78.659, 1.23
78.744, 1.31
78.752, -0.41
78.756, -1.09
78.859, 1.25
78.943, 1.36
78.951, -0.21
78.955, -1.02
79.052, -0.25
79.052, -0.12
79.059, 1.11
79.144, 1.19
79.152, -0.44
79.154, -0.67
79.249, -0.73
79.251, -0.66
79.260, 1.31
79.344, 1.18
79.352, -0.41
79.356, -1.10
79.450, -0.64
79.452, -0.36
79.459, 1.14
79.544, 1.27
79.554, -0.91
79.555, -1.03
79.659, 1.25
79.744, 1.24
79.751, -0.21
79.753, -0.50
79.851, -0.50
79.851, -0.37
79.860, 1.26
79.944, 1.27
79.953, -0.57
79.955, -1.06
80.052, -0.30
80.053, -0.12
80.059, 1.13
80.144, 1.17
80.152, -0.46
80.153, -0.67
80.250, -0.55
80.252, -0.27
80.259, 1.20
80.344, 1.15
80.452, -0.40
80.453, -0.12
80.459, 1.15
80.544, 1.15
80.554, -0.76
80.554, -1.00
80.649, -0.81
80.651, -0.67
80.652, -0.38
80.653, -0.12
80.659, 1.14
80.744, 1.14
80.751, -0.20
80.752, -0.38
80.753, -0.79
80.756, -1.13
80.860, 1.28
80.944, 1.21
80.953, -0.66
80.953, -0.77
81.050, -0.65
81.052, -0.14
81.059, 1.16
81.144, 1.22
81.153, -0.87
81.156, -1.12
81.248, -1.00
81.248, -0.99
81.259, 1.24
81.344, 1.19
81.351, -0.21
81.352, -0.55
81.452, -0.37
81.453, -0.11
81.460, 1.36
81.543, 1.35
81.555, -1.00
81.555, -1.06
81.649, -0.76
81.651, -0.59
81.652, -0.35
81.652, -0.12
81.659, 1.23
81.744, 1.17
81.751, -0.21
81.754, -0.93
81.852, -0.37
81.852, -0.16
81.859, 1.15
81.944, 1.29
81.951, -0.26
81.952, -0.45
82.048, -0.98
82.048, -0.93
82.050, -0.56
82.052, -0.29
82.060, 1.32
82.143, 1.37
82.152, -0.41
82.154, -0.92
82.154, -0.97
82.155, -1.08
82.251, -0.55
82.251, -0.37
82.259, 1.23
82.344, 1.20
82.352, -0.35
82.354, -0.82
82.452, -0.30
82.453, -0.11
82.459, 1.26
82.544, 1.19
82.552, -0.21
82.553, -0.44
82.660, 1.27
82.744, 1.24
82.752, -0.49
82.754, -0.91
82.852, -0.29
82.852, -0.21
82.859, 1.14
82.859, 1.26
82.860, 1.38
82.944, 1.31
82.952, -0.37
82.954, -0.73
83.050, -0.56
83.052, -0.14
83.059, 1.24
83.144, 1.23
83.152, -0.37
83.155, -1.10
83.249, -0.72
83.252, -0.16
83.259, 1.19
83.344, 1.31
83.449, -0.78
83.450, -0.65
83.452, -0.31
83.452, -0.14
83.459, 1.15
83.544, 1.32
83.552, -0.37
83.553, -0.77
83.651, -0.56
83.651, -0.39
83.659, 1.23
83.744, 1.24
83.752, -0.48
83.756, -1.12
83.850, -0.53
83.853, -0.11
83.859, 1.25
83.944, 1.23
83.953, -0.69
83.953, -0.74
83.955, -1.05
83.955, -1.06
84.050, -0.64
84.052, -0.28
84.060, 1.27
84.144, 1.18
84.152, -0.39
84.154, -0.99
84.259, 1.25
84.344, 1.25
84.352, -0.45
84.354, -0.74
84.354, -0.89
84.356, -1.14
84.451, -0.46
84.453, -0.13
84.459, 1.23
84.544, 1.15
84.552, -0.38
84.554, -0.75
84.651, -0.56
84.651, -0.54
84.660, 1.37
84.744, 1.14
84.851, -0.49
84.851, -0.43
84.859, 1.15
84.944, 1.15
84.954, -1.04
84.956, -1.16
85.059, 1.22
85.144, 1.31
85.153, -0.49
85.153, -0.67
85.252, -0.30
85.252, -0.19
85.259, 1.25
85.344, 1.32
85.459, 1.25
85.544, 1.33
85.551, -0.21
85.555, -1.09
85.650, -0.58
85.652, -0.29
85.659, 1.21
85.744, 1.14
85.751, -0.23
85.752, -0.48
85.755, -0.91
85.756, -1.13
85.860, 1.28
85.944, 1.32
85.953, -0.48
85.955, -1.04
86.052, -0.33
86.053, -0.11
86.059, 1.23
86.144, 1.29
86.151, -0.23
86.156, -1.10
86.259, 1.23
86.344, 1.28
86.352, -0.27
86.352, -0.33
86.449, -0.72
86.451, -0.60
86.452, -0.30
86.452, -0.22
86.459, 1.14
86.460, 1.32
86.460, 1.36
86.544, 1.19
86.551, -0.22
86.552, -0.47
86.659, 1.24
86.744, 1.31
86.752, -0.47
86.754, -0.92
86.852, -0.30
86.852, -0.13
86.860, 1.37
86.944, 1.31
86.951, -0.24
86.956, -1.09
87.050, -0.62
87.052, -0.32
87.059, 1.25
87.144, 1.22
87.152, -0.39
87.154, -0.71
87.154, -0.88
87.156, -1.12
87.251, -0.58
87.251, -0.46
87.260, 1.27
87.344, 1.21
87.353, -0.83
87.355, -0.95
87.451, -0.58
87.452, -0.36
87.459, 1.23
87.545, 1.12
87.551, -0.20
87.554, -0.95
87.652, -0.28
87.652, -0.17
87.659, 1.23
87.744, 1.28
87.751, -0.22
87.756, -1.13
87.859, 1.23
87.944, 1.25
87.955, -0.98
87.956, -1.11
88.052, -0.29
88.052, -0.18
88.059, 1.17
88.144, 1.32
88.153, -0.75
88.155, -1.08
88.259, 1.24
88.345, 1.14
88.351, -0.20
88.352, -0.36
88.450, -0.61
88.452, -0.32
88.460, 1.28
88.545, 1.11
88.552, -0.34
88.552, -0.42
88.555, -0.93
88.556, -1.11
88.659, 1.25
88.744, 1.16
88.753, -0.75
88.755, -1.04
88.859, 1.23
88.945, 1.00
88.951, -0.19
88.956, -1.07
89.060, 1.26
89.144, 1.19
89.154, -0.68
89.156, -1.13
89.250, -0.53
89.253, -0.11
89.259, 1.20
89.343, 1.34
89.351, -0.21
89.353, -0.70
89.353, -0.82
89.356, -1.14
89.452, -0.27
89.452, -0.20
89.459, 1.26
89.545, 1.05
89.552, -0.50
89.553, -0.81
89.650, -0.58
89.652, -0.30
89.659, 1.22
89.744, 1.26
89.751, -0.18
89.752, -0.40
89.754, -0.94
89.756, -1.15
89.850, -0.57
89.852, -0.26
89.859, 1.24
89.944, 1.23
89.954, -0.95
89.956, -1.11
90.051, -0.60
90.053, -0.12
90.059, 1.12
90.145, 1.00
90.154, -0.78
90.156, -1.11
90.259, 1.13
90.344, 1.28
90.344, 1.19
90.345, 0.97
90.352, -0.50
90.354, -1.01
90.459, 1.17
90.544, 1.19
90.554, -0.92
90.555, -1.14
90.650, -0.54
90.653, -0.12
90.659, 1.24
90.744, 1.29
90.753, -0.60
90.753, -0.64
90.859, 1.22
90.944, 1.22
90.952, -0.33
90.953, -0.66
91.059, 1.13
91.144, 1.14
91.152, -0.37
91.154, -0.67
91.154, -0.85
91.156, -1.12
91.259, 1.22
91.344, 1.33
91.354, -0.72
91.356, -1.12
91.452, -0.29
91.453, -0.12
91.459, 1.11
91.545, 1.12
91.552, -0.24
91.553, -0.65
91.555, -0.93
91.556, -1.13
91.650, -0.52
91.652, -0.31
91.659, 1.13
91.744, 1.27
91.745, 1.10
91.745, 1.03
91.752, -0.49
91.754, -0.97
91.852, -0.29
91.853, -0.13
91.859, 1.25
91.944, 1.17
91.953, -0.62
91.955, -0.92
92.050, -0.57
92.053, -0.14
92.059, 1.15
92.145, 1.04
92.151, -0.20
92.152, -0.53
92.259, 1.22
92.345, 1.10
92.354, -0.83
92.354, -1.00
92.459, 1.22
92.545, 1.13
92.553, -0.72
92.555, -1.03
92.651, -0.56
92.653, -0.13
92.659, 1.22
92.744, 1.29
92.751, -0.20
92.753, -0.52
92.753, -0.73
92.755, -1.07
92.851, -0.56
92.853, -0.12
92.859, 1.11
92.945, 1.09
92.951, -0.25
92.952, -0.46
92.955, -0.90
92.956, -1.12
93.050, -0.53
93.052, -0.22
93.060, 1.26
93.145, 0.97
93.250, -0.65
93.250, -0.62
93.259, 1.14
93.345, 1.12
93.355, -0.99
93.355, -1.06
93.450, -0.57
93.452, -0.33
93.459, 1.13
93.544, 1.27
93.553, -0.48
93.556, -1.13
93.660, 1.32
93.745, 1.09
93.752, -0.34
93.754, -1.07
93.849, -0.77
93.853, -0.09
93.859, 1.21
93.945, 1.10
94.049, -0.79
94.051, -0.47
94.052, -0.38
94.053, -0.15
94.059, 1.21
94.145, 1.08
94.152, -0.26
94.152, -0.48
94.155, -0.94
94.156, -1.11
94.252, -0.34
94.253, -0.13
94.259, 1.21
94.344, 1.21
94.351, -0.18
94.353, -0.54
94.353, -0.62
94.356, -1.11
94.459, 1.11
94.543, 1.39
94.659, 1.20
94.744, 1.30
94.752, -0.41
94.753, -0.64
94.755, -0.95
94.755, -0.97
94.849, -0.74
94.851, -0.63
94.852, -0.32
94.852, -0.13
94.859, 1.19
94.945, 1.14
94.951, -0.20
94.955, -1.07
95.052, -0.35
95.052, -0.17
95.059, 1.12
95.145, 1.13
95.259, 1.19
95.344, 1.22
95.354, -0.93
95.356, -1.12
95.450, -0.50
95.452, -0.13
95.459, 1.09
95.544, 1.19
95.552, -0.25
95.554, -1.09
95.659, 1.09
95.744, 1.17
95.851, -0.51
95.853, -0.09
95.858, 1.06
95.945, 1.08
95.953, -0.51
95.953, -0.56
95.955, -0.97
95.955, -1.07
96.050, -0.54
96.052, -0.10
96.058, 1.06
96.144, 1.15
96.152, -0.55
96.154, -1.06
96.258, 1.06
96.344, 1.19
96.351, -0.17
96.354, -0.79
96.450, -0.53
96.452, -0.33
96.459, 1.14
96.545, 1.14
96.553, -0.83
96.555, -1.07
96.659, 1.10
96.744, 1.16
96.753, -0.49
96.755, -1.09
96.859, 1.07
96.945, 1.11
96.951, -0.20
96.953, -0.52
96.953, -0.72
96.954, -1.02
97.050, -0.55
97.052, -0.39
97.058, 1.05
97.144, 1.20
97.154, -0.79
97.155, -1.11
97.249, -0.84
97.251, -0.49
97.259, 1.26
97.344, 1.17
97.352, -0.42
97.353, -0.71
97.450, -0.48
97.453, -0.13
97.459, 1.19
97.545, 1.11
97.553, -0.71
97.553, -0.75
97.555, -0.99
97.555, -1.07
97.652, -0.29
97.652, -0.14
97.659, 1.09
97.660, 1.36
97.660, 1.36
97.744, 1.25
97.753, -0.68
97.755, -1.12
97.859, 1.23
97.944, 1.25
97.951, -0.21
97.952, -0.40
97.955, -1.05
97.955, -1.14
98.059, 1.07
98.144, 1.18
98.152, -0.25
98.152, -0.31
98.155, -0.98
98.156, -1.14
98.259, 1.09
98.344, 1.25
98.351, -0.22
98.354, -0.75
98.458, 1.05
98.544, 1.19
98.649, -0.81
98.652, -0.22
98.659, 1.23
98.745, 1.13
98.751, -0.26
98.755, -1.08
98.852, -0.32
98.853, -0.13
98.858, 1.02
98.944, 1.24
99.059, 1.14
99.144, 1.28
99.152, -0.28
99.155, -1.06
99.258, 1.05
99.345, 1.13
99.353, -0.76
99.356, -1.12
99.458, 0.97
99.545, 1.09
99.552, -0.43
99.554, -0.89
99.658, 0.94
99.658, 1.05
99.659, 1.22
99.745, 1.11
99.850, -0.52
99.852, -0.28
99.858, 0.96
99.858, 1.01
99.859, 1.24
99.945, 1.03
99.952, -0.24
99.952, -0.31
99.954, -1.02
99.954, -1.04
100.049, -0.76
100.051, -0.64
100.058, 1.06
100.144, 1.26
100.252, -0.23
100.252, -0.15
100.258, 0.97
100.258, 0.99
100.259, 1.22
100.344, 1.18
100.351, -0.20
100.352, -0.52
100.353, -0.85
100.356, -1.11
100.449, -0.80
100.452, -0.32
100.459, 1.17
100.544, 1.23
100.552, -0.26
100.552, -0.30
100.553, -0.82
100.555, -0.98
100.649, -0.75
100.651, -0.66
100.658, 0.94
100.744, 1.26
100.752, -0.37
100.756, -1.11
100.851, -0.63
100.852, -0.36
100.859, 1.19
100.945, 1.13
100.952, -0.22
100.954, -1.05
101.059, 1.21
101.144, 1.15
101.152, -0.24
101.153, -0.76
101.155, -0.99
101.155, -1.10
101.259, 1.21
101.345, 1.12
101.353, -0.86
101.355, -1.10
101.449, -0.80
101.451, -0.66
101.459, 1.15
101.545, 1.09
101.551, -0.21
101.554, -1.06
101.659, 1.11
101.745, 1.07
101.752, -0.38
101.754, -0.71
101.755, -0.97
101.755, -1.04
101.851, -0.59
101.851, -0.49
101.858, 0.96
101.859, 1.11
101.859, 1.17
101.944, 1.26
101.954, -0.91
101.954, -1.00
102.050, -0.69
102.052, -0.31
102.059, 1.23
102.144, 1.18
102.152, -0.32
102.155, -1.06
102.259, 1.24
102.344, 1.24
102.354, -0.89
102.356, -1.13
102.459, 1.21
102.544, 1.25
102.552, -0.36
102.554, -0.66
102.659, 1.11
102.745, 1.13
102.753, -0.50
102.756, -1.08
102.852, -0.24
102.852, -0.23
102.859, 1.16
102.945, 1.02
102.952, -0.30
102.952, -0.45
103.050, -0.58
103.052, -0.30
103.059, 1.15
103.145, 1.04
103.152, -0.38
103.154, -1.08
103.259, 1.20
103.344, 1.25
103.351, -0.21
103.352, -0.36
103.354, -0.82
103.356, -1.12
103.452, -0.31
103.452, -0.14
103.459, 1.14
103.544, 1.24
103.553, -0.79
103.555, -1.07
103.659, 1.10
103.660, 1.36
103.660, 1.36
103.745, 1.14
103.755, -1.01
103.755, -1.06
103.859, 1.22
103.944, 1.28
103.945, 1.08
103.945, 1.03
103.954, -1.05
103.956, -1.17
104.052, -0.33
104.052, -0.17
104.059, 1.19
104.145, 1.07
104.251, -0.54
104.251, -0.50
104.259, 1.19
104.344, 1.25
104.355, -1.00
104.356, -1.18
104.450, -0.57
104.452, -0.31
104.459, 1.17
104.544, 1.27
104.554, -0.87
104.554, -1.05
104.652, -0.29
104.652, -0.14
104.659, 1.20
104.744, 1.24
104.751, -0.21
104.754, -0.65
104.859, 1.11
104.944, 1.16
105.052, -0.32
105.052, -0.12
105.059, 1.09
105.144, 1.22
105.259, 1.12
105.344, 1.14
105.354, -0.94
105.354, -1.03
105.459, 1.11
105.544, 1.26
105.553, -0.42
105.554, -0.94
105.650, -0.62
105.652, -0.28
105.659, 1.20
105.745, 1.09
105.755, -0.97
105.756, -1.16
105.850, -0.58
105.852, -0.31
105.859, 1.08
105.945, 1.09
105.951, -0.20
105.952, -0.42
105.954, -0.77
105.954, -0.85
106.052, -0.25
106.052, -0.13
106.059, 1.14
106.145, 1.12
106.153, -0.72
106.156, -1.15
106.250, -0.59
106.252, -0.29
106.259, 1.22
106.345, 0.98
106.354, -0.71
106.356, -1.15
106.459, 1.11
106.544, 1.24
106.554, -0.90
106.556, -1.15
106.659, 1.08
106.744, 1.26
106.753, -0.75
106.756, -1.18
106.851, -0.42
106.853, -0.11
106.859, 1.09
106.944, 1.16
106.951, -0.24
106.953, -0.65
107.052, -0.27
107.052, -0.15
107.059, 1.17
107.144, 1.14
107.153, -0.47
107.153, -0.53
107.251, -0.52
107.251, -0.46
107.259, 1.12
107.345, 1.02
107.353, -0.51
107.355, -1.04
107.459, 1.20
107.545, 1.13
107.551, -0.19
107.552, -0.38
107.554, -0.88
107.555, -1.07
107.652, -0.29
107.653, -0.11
107.659, 1.19
107.744, 1.24
107.751, -0.23
107.752, -0.48
107.850, -0.51
107.853, -0.12
107.859, 1.09
107.945, 1.12
107.951, -0.20
107.954, -0.88
108.059, 1.11
108.145, 1.09
108.152, -0.53
108.156, -1.17
108.250, -0.64
108.252, -0.35
108.259, 1.08
108.345, 0.97
108.351, -0.18
108.352, -0.49
108.353, -0.83
108.355, -0.99
108.452, -0.31
108.452, -0.14
108.459, 1.12
108.545, 1.03
108.551, -0.20
108.553, -0.51
108.650, -0.56
108.652, -0.35
108.659, 1.11
108.745, 1.09
108.751, -0.18
108.754, -0.84
108.859, 1.09
108.945, 1.03
108.952, -0.34
108.954, -0.91
108.954, -0.97
108.956, -1.10
109.050, -0.63
109.052, -0.27
109.059, 1.21
109.144, 1.23
109.152, -0.24
109.152, -0.31
109.154, -0.68
109.155, -1.03
109.252, -0.27
109.252, -0.13
109.259, 1.20
109.344, 1.24
109.450, -0.59
109.452, -0.26
109.459, 1.08
109.545, 1.09
109.553, -0.72
109.555, -1.09
109.659, 1.18
109.744, 1.21
109.753, -0.50
109.753, -0.64
109.850, -0.68
109.850, -0.56
109.859, 1.19
109.945, 1.10
109.951, -0.21
109.956, -1.09
110.050, -0.56
110.052, -0.15
110.059, 1.11
110.145, 1.01
110.151, -0.19
110.152, -0.41
110.153, -0.60
110.155, -0.88
110.252, -0.28
110.252, -0.13
110.259, 1.14
110.345, 0.99
110.353, -0.58
110.355, -0.98
110.451, -0.43
110.453, -0.12
110.459, 1.19
110.545, 1.11
110.553, -0.53
110.556, -1.11
110.652, -0.26
110.653, -0.10
110.659, 1.08
110.745, 1.11
110.755, -0.92
110.756, -1.11
110.859, 1.12
110.945, 1.05
110.952, -0.32
110.953, -0.76
111.049, -0.79
111.051, -0.51
111.052, -0.32
111.053, -0.12
111.059, 1.09
111.145, 1.06
111.250, -0.56
111.252, -0.14
111.259, 1.10
111.344, 1.15
111.353, -0.77
111.355, -0.96
111.450, -0.62
111.453, -0.13
111.459, 1.19
111.545, 1.02
111.553, -0.72
111.554, -0.93
111.650, -0.61
111.652, -0.32
111.659, 1.19
111.745, 1.09
111.753, -0.76
111.756, -1.10
111.859, 1.12
111.945, 1.01
111.954, -0.73
111.954, -0.96
112.059, 1.14
112.145, 1.08
112.153, -0.68
112.155, -1.02
112.259, 1.07
112.344, 1.14
112.353, -0.80
112.356, -1.09
112.459, 1.23
112.545, 1.05
112.649, -0.81
112.651, -0.46
112.658, 0.99
112.745, 1.02
112.753, -0.74
112.756, -1.11
112.851, -0.56
112.853, -0.10
112.859, 1.08
112.945, 1.01
113.050, -0.61
113.052, -0.34
113.059, 1.19
113.145, 1.10
113.151, -0.24
113.152, -0.41
113.259, 1.15
113.344, 1.24
113.344, 1.23
113.345, 1.03
113.450, -0.54
113.453, -0.12
113.459, 1.18
113.544, 1.18
113.553, -0.47
113.553, -0.67
113.555, -0.99
113.555, -1.06
113.651, -0.43
113.653, -0.14
113.659, 1.10
113.745, 1.13
113.755, -0.90
113.756, -1.11
113.849, -0.78
113.851, -0.40
113.858, 1.06
113.945, 1.12
113.954, -0.90
113.954, -0.94
114.052, -0.27
114.053, -0.07
114.058, 1.04
114.145, 1.00
114.155, -0.98
114.155, -1.09
114.259, 1.08
114.344, 1.22
114.353, -0.53
114.354, -1.02
114.458, 1.03
114.544, 1.20
114.551, -0.19
114.552, -0.46
114.553, -0.81
114.555, -1.06
114.650, -0.60
114.653, -0.09
114.658, 1.06
114.745, 1.09
114.753, -0.78
114.755, -1.08
114.849, -0.81
114.851, -0.47
114.852, -0.29
114.853, -0.10
114.859, 1.18
114.945, 1.02
114.953, -0.80
114.956, -1.07
115.050, -0.53
115.052, -0.16
115.058, 1.04
115.145, 1.03
115.152, -0.23
115.153, -0.71
115.250, -0.70
115.252, -0.32
115.258, 0.97
115.344, 1.16
115.351, -0.19
115.353, -0.55
115.354, -0.89
115.356, -1.11
115.451, -0.53
115.452, -0.17
115.459, 1.11
115.545, 1.13
115.551, -0.18
115.553, -0.50
115.553, -0.51
115.555, -1.05
115.649, -0.75
115.651, -0.58
115.658, 1.04
115.744, 1.17
115.752, -0.41
115.756, -1.12
115.849, -0.82
115.851, -0.59
115.859, 1.10
115.945, 1.07
115.954, -0.88
115.955, -1.07
116.058, 0.96
116.058, 1.05
116.059, 1.17
116.145, 1.01
116.153, -0.90
116.155, -1.03
116.251, -0.51
116.251, -0.35
116.258, 1.03
116.345, 1.13
116.355, -0.90
116.356, -1.12
116.450, -0.57
116.451, -0.31
116.458, 0.97
116.545, 1.03
116.651, -0.31
116.652, -0.18
116.658, 1.02
116.745, 1.13
116.751, -0.20
116.754, -0.72
116.755, -0.99
116.756, -1.12
116.850, -0.70
116.851, -0.56
116.858, 1.06
116.945, 1.12
117.051, -0.42
117.052, -0.28
117.059, 1.11
117.145, 1.09
117.153, -0.47
117.155, -1.05
117.258, 0.94
117.345, 1.02
117.352, -0.39
117.355, -1.09
117.452, -0.23
117.452, -0.13
117.459, 1.11
117.545, 1.02
117.554, -0.93
117.555, -1.08
117.658, 1.03
117.745, 1.09
117.852, -0.32
117.853, -0.13
117.858, 1.06
117.945, 0.97
117.951, -0.19
117.955, -1.04
118.059, 1.07
118.145, 1.02
118.152, -0.24
118.153, -0.64
118.153, -0.72
118.155, -1.05
118.259, 1.18
118.345, 1.02
118.351, -0.19
118.354, -1.05
118.450, -0.62
118.450, -0.52
118.459, 1.09
118.544, 1.19
118.551, -0.21
118.555, -1.03
118.651, -0.57
118.652, -0.19
118.659, 1.14
118.745, 1.09
118.752, -0.40
118.754, -0.74
118.850, -0.77
118.850, -0.67
118.858, 0.92
118.945, 1.10
118.953, -0.47
118.955, -1.06
119.049, -0.70
119.052, -0.31
119.058, 0.93
119.145, 1.10
119.154, -0.97
119.156, -1.10
119.258, 0.95
119.344, 1.14
119.353, -0.70
119.356, -1.13
119.452, -0.29
119.452, -0.17
119.458, 1.07
119.544, 1.19
119.553, -0.50
119.553, -0.62
119.555, -1.03
119.555, -1.09
119.659, 1.10
119.745, 1.08
119.752, -0.22
119.752, -0.32
119.849, -0.76
119.852, -0.30
119.858, 1.04
119.945, 1.09
119.954, -0.88
119.956, -1.12
120.052, -0.35
120.052, -0.16
120.059, 1.10
120.145, 0.98
120.151, -0.18
120.152, -0.39
120.155, -1.08
120.156, -1.14
120.250, -0.60
120.252, -0.31
120.259, 1.07
120.345, 1.03
120.458, 0.98
120.545, 1.06
120.551, -0.18
120.556, -1.10
120.648, -1.01
120.648, -0.99
120.649, -0.81
120.650, -0.63
120.652, -0.29
120.652, -0.15
120.658, 1.04
120.745, 1.13
120.752, -0.43
120.753, -0.69
120.755, -1.01
120.755, -1.05
120.848, -0.97
120.848, -0.97
120.858, 1.03
120.945, 1.12
120.955, -0.96
120.956, -1.10
121.058, 1.07
121.145, 1.08
121.151, -0.20
121.155, -0.98
121.252, -0.25
121.253, -0.11
121.258, 1.07
121.345, 1.01
121.354, -0.82
121.354, -0.83
121.459, 1.07
121.545, 1.10
121.553, -0.79
121.556, -1.15
121.658, 0.94
121.745, 0.98
121.753, -0.74
121.754, -1.05
121.850, -0.67
121.852, -0.29
121.858, 0.95
121.858, 1.07
121.859, 1.18
121.945, 1.04
121.952, -0.40
121.954, -1.08
122.051, -0.45
122.053, -0.11
122.058, 1.04
122.145, 1.07
122.153, -0.45
122.156, -1.14
122.248, -1.00
122.248, -0.99
122.249, -0.83
122.251, -0.60
122.258, 1.06
122.345, 1.10
122.351, -0.20
122.355, -1.09
122.459, 1.08
122.544, 1.16
122.551, -0.18
122.552, -0.42
122.554, -1.02
122.556, -1.12
122.659, 1.11
122.745, 1.02
122.752, -0.46
122.755, -1.09
122.850, -0.65
122.852, -0.16
122.859, 1.14
122.945, 1.01
122.953, -0.77
122.956, -1.16
123.058, 1.06
123.145, 1.06
123.152, -0.42
123.154, -1.04
123.250, -0.51
123.253, -0.11
123.258, 1.04
123.345, 1.11
123.351, -0.19
123.352, -0.42
123.355, -1.00
123.355, -1.07
123.450, -0.58
123.452, -0.31
123.458, 0.98
123.545, 1.00
123.554, -0.94
123.555, -1.03
123.651, -0.45
123.652, -0.16
123.658, 1.03
123.745, 1.12
123.752, -0.44
123.754, -0.68
123.852, -0.25
123.852, -0.19
123.858, 1.06
123.945, 1.00
124.051, -0.50
124.052, -0.16
124.058, 1.06
124.145, 1.02
124.152, -0.39
124.154, -0.99
124.258, 1.02
124.345, 1.05
124.353, -0.59
124.355, -1.03
124.450, -0.60
124.452, -0.16
124.458, 1.03
124.545, 1.07
124.554, -0.82
124.556, -1.11
124.652, -0.33
124.653, -0.14
124.658, 0.95
124.745, 0.97
124.753, -0.46
124.754, -1.02
124.849, -0.76
124.850, -0.57
124.858, 1.04
124.945, 0.97
124.953, -0.79
124.955, -1.07
125.058, 1.01
125.145, 1.13
125.251, -0.46
125.253, -0.13
125.258, 1.03
125.344, 1.15
125.352, -0.42
125.354, -0.75
125.355, -1.08
125.355, -1.09
125.450, -0.59
125.452, -0.40
125.458, 1.05
125.545, 1.05
125.552, -0.24
125.552, -0.37
125.555, -0.97
125.556, -1.12
125.649, -0.76
125.652, -0.37
125.658, 1.03
125.746, 0.93
125.753, -0.75
125.755, -0.96
125.849, -0.72
125.851, -0.64
125.858, 1.05
125.945, 1.04
125.951, -0.19
125.953, -0.43
125.953, -0.57
125.956, -1.07
126.052, -0.23
126.052, -0.14
126.058, 1.02
126.145, 1.08
126.153, -0.45
126.156, -1.10
126.249, -0.80
126.251, -0.47
126.258, 0.93
126.345, 1.02
126.458, 1.04
126.545, 1.03
126.555, -0.93
126.556, -1.10
126.658, 1.01
126.745, 1.04
126.751, -0.20
126.753, -0.52
126.852, -0.33
126.853, -0.16
126.858, 1.03
126.946, 0.81
126.955, -1.03
126.955, -1.05
127.058, 1.03
127.146, 0.90
127.152, -0.24
127.152, -0.38
127.153, -0.69
127.156, -1.11
127.258, 1.05
127.346, 0.81
127.352, -0.23
127.352, -0.34
127.353, -0.77
127.355, -1.11
127.458, 0.96
127.546, 0.78
127.551, -0.18
127.553, -0.42
127.553, -0.69
127.555, -0.99
127.651, -0.48
127.652, -0.34
127.658, 1.00
127.745, 0.95
127.752, -0.44
127.756, -1.14
127.847, -1.21
127.847, -1.18
127.851, -0.54
127.853, -0.11
127.858, 1.01
127.945, 1.10
127.946, 0.89
127.946, 0.83
127.952, -0.35
127.954, -0.65
127.955, -0.93
127.955, -1.06
128.051, -0.50
128.051, -0.49
128.058, 1.03
128.145, 1.08
128.152, -0.32
128.155, -0.99
128.250, -0.56
128.252, -0.33
128.258, 0.93
128.259, 1.11
128.259, 1.18
128.345, 0.96
128.352, -0.33
128.354, -0.97
128.458, 1.04
128.545, 0.95
128.553, -0.86
128.555, -0.99
128.658, 1.01
128.745, 1.06
128.751, -0.19
128.752, -0.42
128.852, -0.32
128.852, -0.16
128.858, 1.02
128.946, 0.79
128.953, -0.79
128.955, -0.95
129.058, 1.04
129.145, 0.98
129.152, -0.30
129.154, -1.07
129.250, -0.53
129.251, -0.33
129.258, 1.02
129.345, 0.96
129.353, -0.62
129.353, -0.72
129.355, -0.92
129.356, -1.11
129.452, -0.24
129.452, -0.13
129.458, 1.02
129.545, 1.00
129.555, -1.05
129.556, -1.13
129.649, -0.79
129.651, -0.54
129.658, 1.05
129.746, 0.89
129.752, -0.29
129.752, -0.37
129.754, -0.66
129.754, -0.88
129.858, 0.98
129.945, 1.05
129.945, 1.02
129.946, 0.80
129.952, -0.43
129.955, -1.06
130.050, -0.50
130.052, -0.27
130.058, 0.93
130.145, 1.00
130.152, -0.26
130.152, -0.41
130.154, -0.80
130.155, -1.07
130.252, -0.22
130.252, -0.16
130.258, 1.00
130.345, 1.11
130.452, -0.30
130.452, -0.18
130.458, 1.01
130.546, 0.90
130.554, -0.89
130.556, -1.12
130.658, 0.94
130.745, 0.97
130.754, -0.66
130.756, -1.10
130.850, -0.53
130.852, -0.20
130.858, 1.02
130.945, 0.96
130.953, -0.52
130.953, -0.69
131.058, 1.00
131.145, 1.11
131.146, 0.85
131.146, 0.85
131.155, -1.01
131.155, -1.05
131.258, 1.02
131.345, 1.00
131.353, -0.70
131.356, -1.09
131.449, -0.73
131.450, -0.57
131.458, 1.00
131.545, 1.07
131.552, -0.46
131.554, -0.77
131.658, 0.96
131.745, 1.12
131.746, 0.85
131.746, 0.85
131.754, -0.78
131.754, -0.91
131.850, -0.58
131.852, -0.31
131.858, 0.92
131.946, 0.90
131.951, -0.20
131.954, -0.86
132.050, -0.66
132.052, -0.32
132.058, 1.01
132.145, 1.12
132.252, -0.24
132.252, -0.13
132.258, 0.94
132.346, 0.93
132.451, -0.53
132.451, -0.50
132.458, 0.91
132.545, 0.97
132.553, -0.68
132.556, -1.10
132.650, -0.61
132.652, -0.32
132.658, 1.01
132.745, 0.98
132.753, -0.50
132.753, -0.71
132.850, -0.64
132.852, -0.30
132.858, 0.92
132.946, 0.88
132.951, -0.18
132.952, -0.35
132.954, -1.01
132.956, -1.10
133.050, -0.56
133.052, -0.14
133.058, 0.99
133.146, 0.93
133.152, -0.44
133.154, -1.02
133.251, -0.56
133.251, -0.47
133.258, 0.97
133.345, 1.05
133.351, -0.20
133.352, -0.43
133.449, -0.71
133.450, -0.55
133.458, 0.95
133.545, 0.99
133.552, -0.26
133.552, -0.38
133.555, -0.94
133.556, -1.08
133.658, 1.00
133.745, 0.95
133.753, -0.78
133.755, -1.05
133.851, -0.51
133.852, -0.14
133.858, 0.99
133.945, 1.00
133.953, -0.57
133.956, -1.09
134.058, 1.00
134.145, 0.99
134.151, -0.24
134.152, -0.48
134.155, -0.95
134.156, -1.11
134.258, 0.91
134.346, 0.93
134.353, -0.86
134.356, -1.12
134.458, 0.97
134.545, 0.95
134.551, -0.21
134.553, -0.54
134.652, -0.23
134.652, -0.13
134.658, 1.04
134.746, 0.94
134.751, -0.22
134.755, -1.07
134.849, -0.79
134.852, -0.23
134.858, 1.02
134.945, 1.05
134.952, -0.41
134.953, -0.67
135.049, -0.81
135.051, -0.53
135.058, 0.99
135.145, 1.08
135.146, 0.88
135.146, 0.84
135.250, -0.59
135.252, -0.27
135.258, 0.94
135.346, 0.94
135.351, -0.24
135.355, -1.05
135.458, 0.99
135.545, 0.96
135.658, 1.03
135.745, 1.00
135.751, -0.26
135.753, -0.67
135.755, -0.95
135.756, -1.08
135.851, -0.57
135.852, -0.27
135.858, 0.90
135.945, 0.95
135.951, -0.19
135.953, -0.52
135.953, -0.69
135.955, -1.03
136.050, -0.64
136.050, -0.58
136.052, -0.33
136.052, -0.13
136.058, 0.96
136.146, 0.92
136.151, -0.20
136.153, -0.46
136.251, -0.56
136.251, -0.45
136.258, 1.01
136.345, 1.04
136.458, 0.99
136.546, 0.94
136.658, 0.90
136.745, 0.98
136.752, -0.28
136.752, -0.36
136.755, -0.98
136.756, -1.12
136.858, 0.92
136.945, 1.00
136.951, -0.18
136.954, -0.81
137.052, -0.23
137.052, -0.21
137.058, 0.94
137.145, 0.94
137.152, -0.37
137.153, -0.68
137.250, -0.53
137.252, -0.16
137.258, 0.88
137.346, 0.89
137.352, -0.38
137.354, -0.99
137.450, -0.52
137.452, -0.28
137.458, 0.90
137.546, 0.91
137.552, -0.26
137.552, -0.30
137.553, -0.72
137.555, -1.03
137.650, -0.49
137.652, -0.28
137.657, 0.83
137.745, 1.07
137.746, 0.89
137.746, 0.84
137.752, -0.27
137.754, -0.73
137.755, -1.05
137.755, -1.06
137.850, -0.50
137.852, -0.22
137.858, 0.87
137.946, 0.92
137.952, -0.44
137.953, -0.64
138.050, -0.79
138.052, -0.13
138.057, 0.86
138.145, 1.08
138.154, -0.90
138.155, -0.98
138.258, 0.88
138.345, 1.07
138.346, 0.91
138.346, 0.84
138.353, -0.85
138.355, -0.96
138.449, -0.84
138.451, -0.35
138.458, 0.99
138.545, 0.96
138.553, -0.47
138.554, -0.86
138.658, 0.99
138.745, 0.97
138.751, -0.19
138.754, -0.75
138.755, -1.04
138.755, -1.12
138.858, 0.93
138.859, 1.09
138.859, 1.18
138.946, 0.83
138.951, -0.22
138.953, -0.47
138.953, -0.62
138.954, -1.04
139.051, -0.57
139.051, -0.54
139.057, 0.86
139.145, 0.95
139.152, -0.41
139.154, -0.91
139.257, 0.82
139.345, 0.97
139.353, -0.45
139.355, -1.05
139.458, 0.90
139.545, 1.04
139.554, -0.84
139.555, -1.03
139.657, 0.79
139.745, 1.06
139.746, 0.90
139.746, 0.83
139.850, -0.67
139.852, -0.30
139.857, 0.85
139.946, 0.91
139.951, -0.20
139.952, -0.43
140.051, -0.41
140.051, -0.35
140.057, 0.76
140.057, 0.79
140.058, 1.04
140.146, 0.92
140.155, -0.92
140.156, -1.12
140.251, -0.67
140.252, -0.30
140.258, 0.88
140.346, 0.87
140.354, -0.87
140.356, -1.11
140.451, -0.53
140.451, -0.51
140.457, 0.74
140.457, 0.86
140.458, 1.04
140.545, 0.96
140.552, -0.41
140.554, -0.85
140.555, -1.03
140.555, -1.08
140.658, 1.03
140.746, 0.93
140.752, -0.23
140.752, -0.40
140.858, 1.00
140.946, 0.88
140.953, -0.73
140.955, -1.04
141.052, -0.21
141.052, -0.20
141.058, 1.03
141.146, 0.89
141.155, -0.91
141.156, -1.11
141.258, 0.94
141.345, 1.03
141.352, -0.41
141.355, -1.08
141.457, 0.84
141.546, 0.88
141.553, -0.50
141.556, -1.12
141.658, 1.02
141.746, 0.94
141.753, -0.49
141.753, -0.53
141.857, 0.87
141.945, 0.96
141.951, -0.21
141.953, -0.61
141.955, -0.96
141.956, -1.10
142.058, 1.03
142.145, 0.96
142.153, -0.54
142.155, -1.11
142.257, 0.85
142.345, 1.07
142.346, 0.94
142.346, 0.81
142.352, -0.42
142.356, -1.09
142.450, -0.62
142.450, -0.57
142.452, -0.24
142.452, -0.19
142.458, 0.89
142.545, 1.04
142.552, -0.42
142.554, -1.03
142.649, -0.81
142.652, -0.15
142.658, 0.90
142.746, 0.85
142.752, -0.43
142.755, -1.09
142.850, -0.48
142.851, -0.28
142.858, 0.91
142.946, 0.88
142.953, -0.71
142.956, -1.09
143.057, 0.84
143.145, 0.98
143.152, -0.24
143.152, -0.39
143.154, -1.02
143.155, -1.07
143.258, 0.93
143.346, 0.93
143.353, -0.47
143.353, -0.53
143.452, -0.31
143.452, -0.17
143.458, 0.94
143.546, 0.88
143.652, -0.29
143.653, -0.12
143.657, 0.85
143.745, 1.01
143.752, -0.37
143.754, -0.83
143.849, -0.79
143.852, -0.30
143.858, 0.89
143.946, 0.91
143.951, -0.23
143.954, -0.78
143.955, -0.95
143.956, -1.15
144.050, -0.63
144.052, -0.33
144.058, 0.99
144.146, 0.90
144.152, -0.38
144.153, -0.71
144.155, -0.95
144.156, -1.11
144.250, -0.61
144.252, -0.16
144.257, 0.73
144.346, 0.87
144.352, -0.30
144.354, -0.80
144.355, -1.03
144.356, -1.15
144.458, 0.90
144.546, 0.94
144.658, 0.88
144.745, 1.04
144.752, -0.40
144.754, -0.76
144.755, -1.05
144.756, -1.11
144.858, 0.97
144.946, 0.88
144.953, -0.62
144.956, -1.17
145.058, 0.99
145.145, 1.05
145.152, -0.43
145.155, -1.00
145.249, -0.77
145.252, -0.32
145.258, 0.90
145.346, 0.93
145.352, -0.23
145.353, -0.46
145.355, -0.93
145.355, -1.05
145.458, 0.99
145.546, 0.84
145.658, 0.95
145.746, 0.90
145.752, -0.43
145.754, -0.94
145.850, -0.60
145.852, -0.31
145.858, 0.88
145.946, 0.81
145.951, -0.21
145.952, -0.34
146.050, -0.59
146.052, -0.24
146.058, 0.88
146.146, 0.89
146.153, -0.71
146.155, -1.01
146.251, -0.42
146.251, -0.35
146.258, 0.89
146.346, 0.80
146.353, -0.49
146.353, -0.68
146.451, -0.61
146.451, -0.40
146.457, 0.85
146.545, 0.94
146.553, -0.50
146.553, -0.65
146.555, -1.00
146.556, -1.13
146.651, -0.45
146.651, -0.34
146.658, 0.89
146.746, 0.90
146.850, -0.54
146.852, -0.25
146.858, 1.01
146.946, 0.86
146.951, -0.20
146.954, -0.94
147.051, -0.67
147.052, -0.34
147.058, 0.98
147.146, 0.83
147.152, -0.45
147.155, -0.92
147.249, -0.81
147.251, -0.51
147.252, -0.29
147.252, -0.21
147.258, 0.90
147.346, 0.91
147.351, -0.21
147.352, -0.41
147.353, -0.59
147.356, -1.10
147.458, 0.93
147.546, 0.78
147.551, -0.21
147.553, -0.43
147.553, -0.64
147.556, -1.12
147.651, -0.45
147.651, -0.36
147.657, 0.86
147.746, 0.78
147.752, -0.40
147.753, -0.71
147.755, -1.03
147.755, -1.03
147.858, 0.88
147.946, 0.88
148.052, -0.24
148.052, -0.19
148.058, 0.89
148.146, 0.77
148.153, -0.51
148.154, -1.05
148.250, -0.56
148.252, -0.21
148.258, 0.90
148.346, 0.87
148.353, -0.51
148.353, -0.62
148.355, -1.00
148.355, -1.12
148.458, 0.90
148.546, 0.80
148.555, -1.03
148.555, -1.11
148.658, 0.87
148.746, 0.84
148.753, -0.53
148.756, -1.12
148.852, -0.23
148.852, -0.16
148.858, 0.94
148.946, 0.78
148.951, -0.21
148.953, -0.60
148.954, -0.93
148.956, -1.18
149.050, -0.54
149.052, -0.34
149.057, 0.81
149.145, 0.96
149.154, -0.82
149.156, -1.15
149.258, 0.88
149.346, 0.94
149.354, -0.91
149.356, -1.13
149.451, -0.58
149.451, -0.45
149.458, 0.87
149.546, 0.82
149.551, -0.21
149.554, -1.05
149.649, -0.79
149.651, -0.48
149.657, 0.86
149.746, 0.88
149.752, -0.45
149.754, -0.68
149.851, -0.46
149.852, -0.24
149.858, 0.88
149.945, 0.95
149.951, -0.20
149.952, -0.37
149.954, -0.91
149.956, -1.15
150.050, -0.58
150.052, -0.31
150.058, 0.93
150.146, 0.80
150.153, -0.79
150.156, -1.12
150.258, 0.91
150.346, 0.77
150.352, -0.39
150.354, -0.71
150.354, -0.74
150.356, -1.14
150.450, -0.58
150.452, -0.22
150.458, 0.91
150.546, 0.76
150.554, -0.89
150.556, -1.13
150.650, -0.47
150.652, -0.30
150.658, 0.88
150.746, 0.83
150.751, -0.21
150.752, -0.38
150.754, -0.73
150.756, -1.12
150.849, -0.79
150.851, -0.54
150.852, -0.30
150.852, -0.17
150.858, 0.89
150.946, 0.77
150.951, -0.22
150.952, -0.44
150.955, -0.94
150.956, -1.12
151.058, 0.89
151.146, 0.85
151.151, -0.21
151.152, -0.40
151.153, -0.63
151.156, -1.09
151.257, 0.83
151.346, 0.89
151.351, -0.20
151.354, -0.87
151.355, -0.96
151.356, -1.11
151.458, 0.90
151.546, 0.77
151.552, -0.47
151.556, -1.09
151.657, 0.85
151.746, 0.79
151.751, -0.20
151.753, -0.52
151.755, -1.01
151.756, -1.10
151.858, 0.87
151.946, 0.82
151.953, -0.64
151.955, -1.03
152.057, 0.86
152.146, 0.90
152.151, -0.20
152.153, -0.44
152.155, -0.91
152.155, -1.05
152.258, 0.95
152.346, 0.90
152.351, -0.20
152.353, -0.72
152.450, -0.55
152.452, -0.31
152.458, 0.88
152.546, 0.87
152.551, -0.22
152.552, -0.37
152.554, -0.82
152.554, -0.95
152.650, -0.60
152.652, -0.29
152.657, 0.83
152.746, 0.88
152.752, -0.39
152.755, -0.90
152.857, 0.86
152.946, 0.90
152.953, -0.47
152.953, -0.68
152.955, -0.94
152.956, -1.09
153.058, 0.88
153.146, 0.90
153.154, -0.97
153.155, -0.94
153.250, -0.51
153.252, -0.25
153.258, 0.90
153.346, 0.80
153.354, -0.95
153.356, -1.11
153.457, 0.76
153.546, 0.91
153.551, -0.21
153.552, -0.37
153.650, -0.60
153.652, -0.33
153.657, 0.84
153.746, 0.90
153.753, -0.71
153.755, -1.03
153.857, 0.85
153.946, 0.82
154.051, -0.40
154.051, -0.36
154.057, 0.86
154.146, 0.87
154.152, -0.44
154.156, -1.09
154.258, 0.92
154.346, 0.80
154.351, -0.23
154.352, -0.42
154.353, -0.64
154.354, -1.01
154.451, -0.55
154.451, -0.40
154.457, 0.86
154.546, 0.79
154.555, -0.96
154.556, -1.11
154.649, -0.82
154.651, -0.50
154.652, -0.24
154.652, -0.17
154.658, 0.94
154.746, 0.82
154.752, -0.39
154.753, -0.69
154.849, -0.76
154.851, -0.52
154.858, 0.92
154.946, 0.91
155.051, -0.59
155.051, -0.41
155.057, 0.85
155.146, 0.89
155.153, -0.72
155.155, -1.04
155.250, -0.58
155.252, -0.23
155.257, 0.80
155.346, 0.90
155.354, -0.85
155.355, -1.04
155.450, -0.54
155.452, -0.26
155.457, 0.84
155.546, 0.82
155.551, -0.23
155.552, -0.43
155.649, -0.80
155.652, -0.29
155.657, 0.84
155.746, 0.86
155.751, -0.18
155.753, -0.82
155.755, -0.98
155.756, -1.12
155.850, -0.59
155.852, -0.36
155.857, 0.83
155.946, 0.83
155.955, -0.97
155.955, -1.07
156.058, 0.89
156.146, 0.87
156.152, -0.45
156.156, -1.10
156.249, -0.78
156.251, -0.54
156.257, 0.84
156.346, 0.90
156.352, -0.36
156.354, -0.92
156.457, 0.74
156.546, 0.81
156.553, -0.60
156.556, -1.12
156.650, -0.52
156.652, -0.36
156.657, 0.84
156.746, 0.92
156.751, -0.19
156.752, -0.35
156.852, -0.29
156.853, -0.10
156.857, 0.76
156.946, 0.88
156.953, -0.51
156.954, -1.01
157.049, -0.81
157.051, -0.55
157.058, 0.89
157.146, 0.82
157.151, -0.20
157.153, -0.48
157.154, -0.88
157.154, -1.04
157.257, 0.86
157.346, 0.83
157.352, -0.43
157.356, -1.11
157.451, -0.48
157.452, -0.14
157.458, 0.92
157.546, 0.80
157.555, -0.95
157.556, -1.11
157.657, 0.86
157.746, 0.85
157.858, 0.97
157.946, 0.81
157.955, -0.93
157.956, -1.08
158.049, -0.79
158.051, -0.42
158.058, 0.88
158.146, 0.87
158.155, -0.97
158.156, -1.11
158.257, 0.85
158.346, 0.80
158.352, -0.33
158.354, -0.81
158.457, 0.84
158.546, 0.78
158.657, 0.84
158.746, 0.83
158.753, -0.64
158.755, -1.07
158.852, -0.22
158.852, -0.20
158.857, 0.86
158.946, 0.83
158.954, -0.99
158.954, -1.06
159.051, -0.50
159.052, -0.21
159.057, 0.80
159.146, 0.81
159.151, -0.21
159.152, -0.43
159.257, 0.85
159.346, 0.90
159.451, -0.51
159.452, -0.19
159.458, 0.98
159.546, 0.85
159.551, -0.20
159.554, -0.69
159.555, -1.03
159.555, -1.04
159.650, -0.79
159.650, -0.71
159.658, 0.87
159.746, 0.81
159.752, -0.26
159.752, -0.39
159.754, -0.83
159.756, -1.11
159.849, -0.83
159.852, -0.31
159.857, 0.76
159.946, 0.92
159.953, -0.64
159.955, -0.96
160.050, -0.58
160.052, -0.26
160.057, 0.87
160.146, 0.78
160.153, -0.63
160.155, -1.04
160.251, -0.56
160.252, -0.29
160.257, 0.85
160.346, 0.87
160.352, -0.29
160.356, -1.10
160.451, -0.52
160.451, -0.47
160.457, 0.75
160.458, 0.93
160.458, 0.97
160.546, 0.79
160.553, -0.78
160.556, -1.10
160.657, 0.86
160.746, 0.79
160.753, -0.76
160.756, -1.11
160.858, 0.88
160.946, 0.84
160.952, -0.31
160.952, -0.37
161.057, 0.84
161.146, 0.81
161.257, 0.84
161.346, 0.79
161.353, -0.69
161.356, -1.12
161.449, -0.74
161.451, -0.56
161.457, 0.81
161.546, 0.85
161.649, -0.78
161.651, -0.31
161.657, 0.76
161.657, 0.84
161.658, 1.00
161.746, 0.89
161.752, -0.45
161.756, -1.13
161.849, -0.84
161.851, -0.54
161.857, 0.77
161.946, 0.81
161.953, -0.56
161.956, -1.09
162.051, -0.54
162.051, -0.42
162.057, 0.77
162.146, 0.81
162.249, -0.77
162.251, -0.55
162.257, 0.72
162.346, 0.85
162.352, -0.42
162.353, -0.72
162.449, -0.75
162.450, -0.65
162.457, 0.80
162.546, 0.90
162.553, -0.69
162.555, -1.05
162.657, 0.80
162.746, 0.88
162.754, -0.81
162.754, -0.95
162.857, 0.81
162.946, 0.79
162.955, -0.96
162.956, -1.10
163.057, 0.83
163.146, 0.82
163.153, -0.48
163.154, -0.71
163.257, 0.83
163.346, 0.87
163.354, -0.77
163.355, -1.07
163.457, 0.82
163.546, 0.84
163.554, -0.87
163.556, -1.11
163.652, -0.22
163.652, -0.21
163.657, 0.75
163.746, 0.79
163.753, -0.61
163.755, -1.02
163.851, -0.64
163.852, -0.19
163.857, 0.83
163.946, 0.84
163.952, -0.28
163.952, -0.37
163.953, -0.73
163.955, -1.08
164.057, 0.85
164.146, 0.87
164.152, -0.28
164.152, -0.36
164.154, -0.91
164.154, -1.03
164.250, -0.60
164.252, -0.33
164.257, 0.87
164.346, 0.89
164.353, -0.73
164.355, -1.10
164.449, -0.73
164.451, -0.50
164.457, 0.83
164.546, 0.79
164.553, -0.75
164.556, -1.11
164.649, -0.77
164.651, -0.50
164.657, 0.75
164.658, 0.93
164.658, 0.97
164.746, 0.79
164.754, -0.91
164.756, -1.08
164.850, -0.72
164.852, -0.35
164.857, 0.84
164.946, 0.83
164.955, -0.99
164.956, -1.08
165.051, -0.60
165.052, -0.33
165.057, 0.79
165.146, 0.92
165.152, -0.43
165.153, -0.66
165.250, -0.55
165.252, -0.24
165.257, 0.71
165.346, 0.87
165.354, -0.95
165.356, -1.12
165.457, 0.78
165.546, 0.88
165.553, -0.50
165.553, -0.55
165.650, -0.72
165.652, -0.25
165.657, 0.71
165.747, 0.65
165.754, -0.91
165.754, -1.04
165.849, -0.68
165.850, -0.53
165.857, 0.75
165.946, 0.89
165.953, -0.83
165.956, -1.14
166.049, -0.79
166.050, -0.59
166.057, 0.75
166.146, 0.85
166.152, -0.42
166.153, -0.71
166.155, -0.99
166.156, -1.11
166.250, -0.75
166.251, -0.55
166.257, 0.86
166.346, 0.79
166.451, -0.42
166.451, -0.31
166.457, 0.86
166.546, 0.86
166.546, 0.80
166.547, 0.59
166.554, -0.86
166.554, -1.06
166.657, 0.85
166.746, 0.83
166.753, -0.48
166.753, -0.60
166.850, -0.50
166.852, -0.28
166.857, 0.74
166.946, 0.84
166.955, -1.02
166.956, -1.16
167.057, 0.81
167.146, 0.88
167.147, 0.70
167.147, 0.64
167.153, -0.55
167.153, -0.65
167.154, -0.98
167.156, -1.07
167.251, -0.51
167.252, -0.15
167.257, 0.82
167.347, 0.62
167.353, -0.74
167.355, -1.05
167.447, -1.20
167.447, -1.19
167.457, 0.84
167.546, 0.87
167.546, 0.77
167.547, 0.60
167.555, -0.96
167.556, -1.09
167.658, 0.97
167.747, 0.71
167.754, -0.85
167.754, -1.00
167.851, -0.46
167.851, -0.36
167.857, 0.84
167.946, 0.85
167.953, -0.79
167.955, -0.98
168.048, -0.99
168.048, -0.99
168.057, 0.78
168.146, 0.78
168.155, -0.90
168.156, -1.09
168.250, -0.66
168.252, -0.37
168.257, 0.86
168.346, 0.79
168.352, -0.24
168.352, -0.42
168.457, 0.77
168.546, 0.75
168.555, -0.92
168.556, -1.10
168.657, 0.84
168.747, 0.72
168.754, -0.86
168.756, -1.08
168.850, -0.51
168.852, -0.24
168.857, 0.74
168.946, 0.88
168.947, 0.71
168.947, 0.64
168.955, -0.97
168.955, -1.04
169.051, -0.50
169.052, -0.31
169.057, 0.76
169.146, 0.78
169.151, -0.23
169.156, -1.07
169.257, 0.81
169.347, 0.72
169.457, 0.79
169.546, 0.84
169.553, -0.65
169.555, -1.04
169.657, 0.73
169.746, 0.76
169.754, -1.02
169.756, -1.12
169.847, -1.22
169.847, -1.14
169.851, -0.53
169.852, -0.36
169.857, 0.79
169.947, 0.68
169.952, -0.42
169.953, -0.64
170.049, -0.79
170.050, -0.58
170.057, 0.81
170.147, 0.61
170.152, -0.46
170.156, -1.16
170.247, -1.20
170.247, -1.17
170.257, 0.75
170.346, 0.87
170.346, 0.78
170.347, 0.61
170.353, -0.71
170.356, -1.15
170.457, 0.82
170.547, 0.63
170.657, 0.74
170.746, 0.79
170.752, -0.26
170.754, -0.68
170.857, 0.83
170.947, 0.63
170.952, -0.40
170.954, -0.73
171.050, -0.52
171.052, -0.27
171.057, 0.74
171.147, 0.72
171.151, -0.25
171.152, -0.41
171.154, -0.74
171.155, -1.09
171.249, -0.78
171.250, -0.60
171.257, 0.75
171.346, 0.88
171.352, -0.38
171.353, -0.64
171.450, -0.60
171.452, -0.31
171.457, 0.79
171.547, 0.74
171.657, 0.81
171.746, 0.87
171.751, -0.25
171.753, -0.54
171.754, -0.96
171.756, -1.10
171.857, 0.76
171.946, 0.75
172.057, 0.82
172.147, 0.68
172.257, 0.82
172.346, 0.80
172.355, -0.95
172.355, -1.09
172.450, -0.56
172.452, -0.24
172.457, 0.79
172.546, 0.87
172.551, -0.23
172.552, -0.41
172.650, -0.50
172.652, -0.25
172.657, 0.81
172.746, 0.92
172.752, -0.32
172.752, -0.36
172.857, 0.75
172.946, 0.76
173.057, 0.75
173.146, 0.80
173.152, -0.26
173.152, -0.39
173.251, -0.43
173.251, -0.40
173.257, 0.83
173.346, 0.81
173.457, 0.80
173.546, 0.81
173.554, -0.79
173.554, -1.00
173.650, -0.57
173.652, -0.29
173.657, 0.84
173.745, 1.05
173.745, 1.02
173.747, 0.74
173.857, 0.76
173.946, 0.76
173.952, -0.31
173.953, -0.45
173.953, -0.50
173.954, -0.90
174.057, 0.78
174.146, 0.85
174.152, -0.25
174.152, -0.38
174.250, -0.54
174.252, -0.26
174.257, 0.72
174.346, 0.79
174.353, -0.73
174.356, -1.11
174.457, 0.74
174.546, 0.76
174.552, -0.35
174.552, -0.39
174.553, -0.63
174.555, -1.07
174.657, 0.79
174.746, 0.75
174.850, -0.51
174.852, -0.25
174.857, 0.75
174.946, 0.78
174.954, -0.89
174.955, -1.02
175.057, 0.83
175.146, 0.75
175.151, -0.23
175.154, -0.82
175.257, 0.76
175.346, 0.80
175.352, -0.26
175.352, -0.39
175.353, -0.72
175.355, -1.05
175.457, 0.75
175.546, 0.86
175.551, -0.20
175.553, -0.42
175.554, -0.70
175.556, -1.12
175.650, -0.53
175.652, -0.28
175.657, 0.73
175.746, 0.84
175.752, -0.40
175.753, -0.70
175.755, -0.92
175.756, -1.10
175.850, -0.59
175.852, -0.24
175.857, 0.79
175.946, 0.82
175.952, -0.41
175.953, -0.66
176.051, -0.40
176.051, -0.34
176.057, 0.81
176.147, 0.74
176.155, -0.94
176.156, -1.11
176.257, 0.77
176.346, 0.78
176.457, 0.78
176.547, 0.74
176.555, -0.93
176.556, -1.10
176.657, 0.82
176.746, 0.78
176.851, -0.48
176.851, -0.32
176.857, 0.83
176.946, 0.79
176.951, -0.21
176.956, -1.11
177.057, 0.76
177.146, 0.76
177.250, -0.55
177.252, -0.28
177.257, 0.75
177.346, 0.80
177.352, -0.25
177.352, -0.49
177.457, 0.83
177.546, 0.77
177.651, -0.48
177.651, -0.47
177.657, 0.82
177.746, 0.77
177.753, -0.86
177.755, -1.00
177.857, 0.79
177.946, 0.79
177.952, -0.38
177.953, -0.69
178.057, 0.79
178.146, 0.85
178.151, -0.22
178.153, -0.53
178.153, -0.70
178.155, -1.06
178.250, -0.58
178.252, -0.30
178.257, 0.79
178.346, 0.77
178.353, -0.81
178.355, -1.08
178.449, -0.79
178.452, -0.26
178.457, 0.71
178.546, 0.75
178.552, -0.43
178.553, -0.74
178.649, -0.75
178.652, -0.26
178.657, 0.80
178.746, 0.86
178.751, -0.23
178.752, -0.46
178.851, -0.56
178.851, -0.38
178.857, 0.72
178.946, 0.83
178.951, -0.23
178.953, -0.78
179.057, 0.78
179.146, 0.77
179.153, -0.52
179.153, -0.65
179.257, 0.74
179.346, 0.79
179.457, 0.75
179.546, 0.77
179.552, -0.44
179.553, -0.61
179.555, -0.90
179.556, -1.10
179.649, -0.82
179.651, -0.54
179.657, 0.73
179.746, 0.82
179.752, -0.43
179.753, -0.69
179.857, 0.79
179.946, 0.83
179.954, -0.87
179.954, -1.08
180.050, -0.52
180.052, -0.23
180.057, 0.73
180.146, 0.77
180.152, -0.40
180.155, -0.95
180.257, 0.73
180.346, 0.79
180.354, -1.00
180.355, -1.05
180.457, 0.73
180.547, 0.75
180.552, -0.34
180.555, -1.04
180.657, 0.75
180.746, 0.76
180.754, -0.95
180.756, -1.11
180.857, 0.73
180.946, 0.77
180.952, -0.46
180.956, -1.11
181.057, 0.77
181.147, 0.74
181.152, -0.44
181.155, -1.07
181.257, 0.80
181.347, 0.75
181.353, -0.78
181.356, -1.08
181.450, -0.55
181.452, -0.31
181.457, 0.73
181.547, 0.74
181.555, -0.97
181.556, -1.11
181.657, 0.72
181.746, 0.76
181.754, -0.97
181.756, -1.11
181.849, -0.74
181.851, -0.45
181.857, 0.84
181.947, 0.72
181.951, -0.24
181.953, -0.56
182.057, 0.81
182.146, 0.75
182.154, -0.83
182.154, -1.03
182.257, 0.77
182.346, 0.77
182.353, -0.50
182.353, -0.83
182.354, -1.02
182.356, -1.11
182.456, 0.66
182.547, 0.72
182.553, -0.53
182.555, -1.03
182.651, -0.47
182.652, -0.27
182.656, 0.65
182.746, 0.75
182.753, -0.50
182.753, -0.69
182.850, -0.73
182.852, -0.28
182.857, 0.73
182.946, 0.84
182.946, 0.78
182.947, 0.64
182.952, -0.30
182.953, -0.67
182.955, -0.88
182.956, -1.11
183.049, -0.75
183.051, -0.50
183.056, 0.63
183.146, 0.82
183.151, -0.23
183.153, -0.54
183.155, -0.91
183.156, -1.11
183.257, 0.76
183.347, 0.64
183.353, -0.77
183.355, -1.04
183.451, -0.43
183.451, -0.35
183.457, 0.69
183.547, 0.63
183.554, -0.86
183.556, -1.11
183.657, 0.82
183.746, 0.77
183.752, -0.27
183.756, -1.09
183.850, -0.62
183.852, -0.26
183.857, 0.68
183.947, 0.69
183.952, -0.48
183.954, -0.75
183.955, -0.88
183.956, -1.09
184.057, 0.76
184.058, 0.96
184.058, 0.97
184.146, 0.80
184.154, -1.01
184.156, -1.09
184.250, -0.54
184.252, -0.26
184.257, 0.72
184.346, 0.76
184.352, -0.29
184.352, -0.38
184.353, -0.71
184.355, -1.04
184.456, 0.59
184.547, 0.64
184.553, -0.48
184.554, -0.86
184.554, -0.86
184.556, -1.13
184.657, 0.81
184.747, 0.72
184.754, -0.89
184.755, -0.98
184.856, 0.64
184.947, 0.72
185.057, 0.76
185.147, 0.71
185.251, -0.45
185.252, -0.30
185.256, 0.68
185.347, 0.74
185.457, 0.71
185.546, 0.78
185.551, -0.23
185.555, -0.99
185.656, 0.55
185.747, 0.73
185.752, -0.47
185.754, -0.75
185.755, -0.99
185.756, -1.19
185.856, 0.66
185.946, 0.76
185.952, -0.27
185.952, -0.37
186.057, 0.72
186.146, 0.76
186.152, -0.33
186.152, -0.35
186.257, 0.69
186.346, 0.80
186.449, -0.75
186.452, -0.29
186.456, 0.55
186.457, 0.77
186.457, 0.78
186.547, 0.70
186.552, -0.26
186.553, -0.71
186.555, -1.05
186.556, -1.18
186.650, -0.55
186.652, -0.26
186.656, 0.58
186.747, 0.74
186.755, -1.01
186.755, -1.02
186.856, 0.63
186.946, 0.76
186.953, -0.55
186.954, -0.95
187.057, 0.72
187.146, 0.78
187.153, -0.58
187.154, -0.98
187.249, -0.81
187.251, -0.58
187.257, 0.79
187.347, 0.66
187.352, -0.30
187.352, -0.41
187.457, 0.81
187.546, 0.79
187.650, -0.71
187.652, -0.25
187.657, 0.70
187.747, 0.64
187.753, -0.63
187.755, -1.06
187.850, -0.55
187.852, -0.26
187.857, 0.79
187.947, 0.69
187.953, -0.53
187.956, -1.08
188.051, -0.48
188.051, -0.33
188.056, 0.56
188.147, 0.68
188.152, -0.43
188.155, -0.98
188.257, 0.73
188.347, 0.74
188.352, -0.25
188.352, -0.38
188.457, 0.71
188.547, 0.67
188.552, -0.31
188.553, -0.74
188.556, -1.19
188.556, -1.21
188.657, 0.69
188.747, 0.62
188.857, 0.71
188.947, 0.69
188.953, -0.69
188.955, -1.15
189.057, 0.81
189.146, 0.79
189.153, -0.51
189.153, -0.57
189.155, -0.92
189.156, -1.11
189.257, 0.71
189.347, 0.69
189.351, -0.21
189.352, -0.39
189.353, -0.74
189.356, -1.11
189.457, 0.78
189.547, 0.62
189.552, -0.25
189.554, -0.84
189.554, -0.91
189.555, -1.04
189.649, -0.81
189.651, -0.58
189.657, 0.79
189.747, 0.68
189.753, -0.55
189.753, -0.60
189.755, -1.03
189.755, -1.10
189.857, 0.77
189.947, 0.70
189.952, -0.47
189.955, -1.00
190.057, 0.74
190.147, 0.64
190.251, -0.48
190.251, -0.35
190.257, 0.68
190.346, 0.78
190.352, -0.38
190.355, -1.07
190.450, -0.47
190.452, -0.27
190.456, 0.65
190.546, 0.76
190.553, -0.76
190.554, -1.08
190.656, 0.66
190.747, 0.69
190.753, -0.78
190.755, -0.99
190.851, -0.47
190.851, -0.35
190.857, 0.74
190.947, 0.69
190.952, -0.50
190.955, -1.07
191.057, 0.80
191.147, 0.68
191.152, -0.31
191.153, -0.60
191.249, -0.81
191.251, -0.52
191.257, 0.72
191.347, 0.65
191.354, -0.71
191.354, -0.85
191.449, -0.75
191.452, -0.36
191.457, 0.74
191.547, 0.68
191.552, -0.43
191.554, -0.87
191.656, 0.68
191.747, 0.74
191.755, -1.09
191.756, -1.16
191.857, 0.78
191.947, 0.66
191.952, -0.32
191.954, -0.82
192.049, -0.73
192.052, -0.32
192.057, 0.72
192.147, 0.73
192.152, -0.28
192.152, -0.36
192.257, 0.78
192.347, 0.70
192.352, -0.44
192.353, -0.69
192.449, -0.80
192.452, -0.30
192.457, 0.76
192.547, 0.71
192.553, -0.50
192.553, -0.67
192.657, 0.76
192.747, 0.70
192.751, -0.24
192.752, -0.42
192.857, 0.80
192.947, 0.74
192.953, -0.67
192.956, -1.10
193.050, -0.70
193.052, -0.28
193.057, 0.73
193.147, 0.69
193.153, -0.48
193.155, -0.99
193.257, 0.73
193.347, 0.72
193.352, -0.44
193.354, -0.70
193.457, 0.72
193.547, 0.68
193.552, -0.50
193.553, -0.71
193.657, 0.79
193.747, 0.70
193.752, -0.40
193.755, -1.04
193.856, 0.65
193.947, 0.72
193.954, -0.70
193.955, -1.00
194.057, 0.71
194.147, 0.74
194.155, -0.95
194.156, -1.10
194.257, 0.72
194.347, 0.70
194.352, -0.46
194.353, -0.71
194.449, -0.70
194.450, -0.56
194.457, 0.68
194.547, 0.68
194.552, -0.40
194.555, -1.01
194.657, 0.76
194.747, 0.63
194.752, -0.45
194.756, -1.09
194.851, -0.50
194.851, -0.42
194.856, 0.66
194.947, 0.63
194.954, -0.98
194.956, -1.11
195.049, -0.73
195.051, -0.55
195.057, 0.69
195.147, 0.71
195.153, -0.56
195.155, -0.95
195.249, -0.77
195.251, -0.48
195.256, 0.67
195.347, 0.72
195.457, 0.68
195.547, 0.71
195.649, -0.74
195.651, -0.52
195.656, 0.65
195.747, 0.71
195.755, -0.97
195.756, -1.09
195.857, 0.78
195.947, 0.65
195.954, -0.72
195.955, -1.00
196.051, -0.51
196.051, -0.37
196.057, 0.72
196.147, 0.71
196.152, -0.39
196.153, -0.70
196.249, -0.75
196.251, -0.63
196.257, 0.69
196.347, 0.69
196.353, -0.76
196.356, -1.08
196.457, 0.78
196.547, 0.66
196.554, -0.81
196.554, -0.96
196.650, -0.58
196.652, -0.29
196.657, 0.69
196.747, 0.65
196.752, -0.32
196.753, -0.72
196.755, -0.98
196.756, -1.12
196.857, 0.80
196.947, 0.69
196.952, -0.40
196.953, -0.72
197.057, 0.68
197.147, 0.63
197.152, -0.43
197.156, -1.10
197.256, 0.67
197.348, 0.50
197.353, -0.53
197.356, -1.10
197.450, -0.55
197.452, -0.31
197.456, 0.58
197.547, 0.71
197.551, -0.23
197.553, -0.69
197.657, 0.75
197.747, 0.57
197.849, -0.82
197.852, -0.27
197.857, 0.68
197.948, 0.55
197.952, -0.44
197.953, -0.76
198.050, -0.60
198.052, -0.30
198.056, 0.66
198.147, 0.71
198.153, -0.71
198.155, -1.04
198.256, 0.67
198.347, 0.63
198.352, -0.25
198.356, -1.08
198.457, 0.70
198.547, 0.69
198.555, -1.00
198.555, -1.09
198.657, 0.80
198.747, 0.58
198.755, -0.90
198.756, -1.09
198.849, -0.75
198.850, -0.62
198.857, 0.68
198.947, 0.58
199.050, -0.78
199.050, -0.67
199.057, 0.73
199.147, 0.62
199.153, -0.66
199.155, -1.01
199.249, -0.78
199.251, -0.47
199.257, 0.79
199.347, 0.59
199.353, -0.56
199.353, -0.64
199.355, -1.00
199.355, -1.06
199.456, 0.65
199.547, 0.63
199.651, -0.54
199.651, -0.41
199.657, 0.76
199.748, 0.56
199.752, -0.29
199.755, -1.07
199.851, -0.44
199.851, -0.31
199.856, 0.67
199.947, 0.73
200.057, 0.69
200.147, 0.58
200.154, -0.83
200.155, -0.97
200.256, 0.67
200.347, 0.59
200.449, -0.80
200.451, -0.53
200.457, 0.75
200.547, 0.56
200.551, -0.25
200.554, -0.89
200.649, -0.80
200.651, -0.53
200.656, 0.66
200.747, 0.64
200.751, -0.23
200.755, -0.98
200.849, -0.78
200.851, -0.55
200.856, 0.67
200.947, 0.70
201.049, -0.70
201.050, -0.50
201.057, 0.74
201.147, 0.70
201.151, -0.24
201.154, -0.87
201.154, -0.92
201.155, -1.07
201.256, 0.56
201.347, 0.67
201.355, -1.01
201.355, -1.04
201.456, 0.64
201.547, 0.62
201.555, -0.93
201.556, -1.10
201.649, -0.82
201.650, -0.63
201.656, 0.64
201.747, 0.63
201.752, -0.46
201.753, -0.70
201.850, -0.50
201.852, -0.27
201.856, 0.64
201.947, 0.70
201.952, -0.46
201.954, -0.81
201.954, -0.89
201.955, -1.05
202.049, -0.70
202.050, -0.51
202.057, 0.69
202.147, 0.67
202.153, -0.68
202.155, -1.01
202.256, 0.64
202.347, 0.68
202.348, 0.48
202.348, 0.45
202.353, -0.51
202.353, -0.65
202.456, 0.67
202.547, 0.71
202.552, -0.29
202.555, -0.90
202.657, 0.70
202.747, 0.66
202.752, -0.28
202.753, -0.49
202.754, -1.00
202.756, -1.09
202.856, 0.63
202.947, 0.68
202.952, -0.29
202.952, -0.37
202.955, -0.90
202.956, -1.09
203.050, -0.72
203.051, -0.57
203.056, 0.64
203.147, 0.64
203.152, -0.25
203.156, -1.13
203.249, -0.80
203.252, -0.32
203.256, 0.67
203.347, 0.68
203.451, -0.53
203.451, -0.30
203.456, 0.65
203.547, 0.67
203.552, -0.44
203.554, -1.04
203.648, -1.00
203.648, -1.00
203.657, 0.69
203.747, 0.56
203.752, -0.26
203.752, -0.34
203.856, 0.65
203.948, 0.53
204.049, -0.80
204.052, -0.28
204.056, 0.63
204.147, 0.57
204.154, -0.84
204.155, -1.06
204.256, 0.63
204.347, 0.64
204.353, -0.60
204.353, -0.68
204.449, -0.78
204.451, -0.48
204.456, 0.61
204.547, 0.72
204.552, -0.22
204.554, -0.92
204.554, -0.93
204.556, -1.13
204.651, -0.42
204.651, -0.40
204.657, 0.72
204.747, 0.56
204.752, -0.35
204.752, -0.38
204.851, -0.44
204.851, -0.29
204.856, 0.65
204.947, 0.57
204.952, -0.37
204.954, -1.02
205.050, -0.60
205.052, -0.27
205.056, 0.57
205.148, 0.53
205.152, -0.42
205.154, -0.84
205.256, 0.60
205.347, 0.58
205.353, -0.70
205.355, -1.01
205.456, 0.57
205.548, 0.53
205.552, -0.28
205.552, -0.30
205.651, -0.47
205.652, -0.30
205.657, 0.81
205.747, 0.69
205.752, -0.28
205.752, -0.43
205.851, -0.64
205.852, -0.35
205.857, 0.79
205.947, 0.60
205.952, -0.28
205.954, -0.85
206.050, -0.50
206.052, -0.29
206.056, 0.63
206.148, 0.55
206.256, 0.66
206.347, 0.69
206.451, -0.51
206.452, -0.28
206.456, 0.65
206.547, 0.73
206.551, -0.22
206.554, -0.99
206.649, -0.77
206.651, -0.54
206.656, 0.65
206.747, 0.59
206.752, -0.33
206.754, -0.74
206.856, 0.65
206.947, 0.57
207.057, 0.70
207.147, 0.56
207.155, -0.89
207.156, -1.11
207.251, -0.46
207.252, -0.28
207.256, 0.60
207.347, 0.62
207.449, -0.74
207.452, -0.27
207.456, 0.62
207.547, 0.71
207.553, -0.59
207.556, -1.11
207.650, -0.50
207.652, -0.30
207.657, 0.75
207.747, 0.66
207.752, -0.46
207.755, -1.03
207.857, 0.68
207.947, 0.67
207.954, -0.79
207.956, -1.12
208.051, -0.42
208.051, -0.31
208.057, 0.68
208.147, 0.60
208.152, -0.43
208.154, -0.76
208.256, 0.65
208.347, 0.60
208.352, -0.42
208.355, -0.97
208.457, 0.69
208.547, 0.59
208.552, -0.23
208.553, -0.60
208.651, -0.47
208.651, -0.31
208.656, 0.58
208.747, 0.64
208.752, -0.35
208.754, -0.71
208.849, -0.82
208.851, -0.39
208.856, 0.61
208.947, 0.62
208.953, -0.54
208.954, -0.79
209.049, -0.79
209.050, -0.63
209.057, 0.78
209.147, 0.67
209.155, -0.96
209.155, -1.08
209.250, -0.60
209.252, -0.27
209.256, 0.67
209.347, 0.64
209.353, -0.66
209.356, -1.09
209.449, -0.81
209.451, -0.55
209.456, 0.66
209.547, 0.62
209.551, -0.20
209.553, -0.73
209.657, 0.72
209.747, 0.64
209.752, -0.25
209.752, -0.41
209.753, -0.64
209.754, -0.86
209.850, -0.50
209.852, -0.30
209.857, 0.69
209.947, 0.64
209.951, -0.22
209.952, -0.39
209.955, -0.88
209.956, -1.08
210.057, 0.75
210.147, 0.70
210.154, -0.76
210.156, -1.10
210.256, 0.67
210.347, 0.67
210.354, -0.91
210.356, -1.10
210.457, 0.70
210.547, 0.72
210.553, -0.61
210.555, -1.01
210.649, -0.82
210.651, -0.57
210.657, 0.70
210.747, 0.64
210.856, 0.66
210.947, 0.58
210.955, -0.96
210.956, -1.09
211.049, -0.82
211.052, -0.31
211.056, 0.55
211.147, 0.69
211.155, -1.00
211.155, -1.08
211.256, 0.60
211.347, 0.68
211.456, 0.64
211.547, 0.63
211.553, -0.71
211.555, -1.01
211.650, -0.80
211.650, -0.77
211.656, 0.60
211.747, 0.71
211.752, -0.29
211.752, -0.30
211.755, -0.88
211.756, -1.11
211.849, -0.80
211.851, -0.55
211.856, 0.65
211.947, 0.59
211.953, -0.71
211.955, -1.03
212.057, 0.72
212.147, 0.60
212.257, 0.67
212.347, 0.64
212.353, -0.64
212.356, -1.11
212.457, 0.72
212.547, 0.61
212.649, -0.80
212.651, -0.60
212.656, 0.66
212.747, 0.61
212.850, -0.51
212.852, -0.29
212.856, 0.53
212.947, 0.57
212.952, -0.26
212.953, -0.63
213.057, 0.69
213.147, 0.66
213.152, -0.51
213.153, -0.78
213.256, 0.55
213.347, 0.68
213.354, -0.87
213.354, -0.87
213.450, -0.47
213.452, -0.27
213.456, 0.65
213.547, 0.59
213.554, -0.82
213.555, -1.02
213.651, -0.50
213.651, -0.45
213.656, 0.65
213.747, 0.60
213.752, -0.27
213.752, -0.30
213.849, -0.82
213.851, -0.49
213.856, 0.56
213.947, 0.63
214.056, 0.67
214.147, 0.66
214.153, -0.58
214.154, -0.78
214.256, 0.53
214.347, 0.71
214.456, 0.57
214.456, 0.65
214.457, 0.78
214.547, 0.73
214.552, -0.26
214.552, -0.31
214.555, -0.95
214.555, -0.96
214.656, 0.64
214.747, 0.57
214.753, -0.69
214.756, -1.09
214.849, -0.72
214.850, -0.63
214.857, 0.74
214.947, 0.59
215.056, 0.61
215.147, 0.60
215.152, -0.23
215.152, -0.33
215.154, -0.76
215.154, -1.02
215.250, -0.60
215.252, -0.30
215.256, 0.65
215.347, 0.60
215.352, -0.47
215.353, -0.70
215.450, -0.62
215.450, -0.59
215.456, 0.55
215.547, 0.66
215.554, -0.88
215.555, -0.94
215.657, 0.70
215.747, 0.59
215.752, -0.30
215.752, -0.41
215.755, -0.93
215.755, -1.00
215.849, -0.75
215.852, -0.26
215.856, 0.52
215.947, 0.63
215.954, -0.80
215.954, -0.98
216.050, -0.48
216.052, -0.27
216.056, 0.56
216.147, 0.62
216.153, -0.67
216.155, -0.91
216.250, -0.80
216.251, -0.52
216.256, 0.67
216.347, 0.67
216.353, -0.54
216.356, -1.11
216.449, -0.82
216.452, -0.26
216.456, 0.61
216.547, 0.64
216.552, -0.30
216.552, -0.32
216.553, -0.65
216.556, -1.10
216.656, 0.62
216.747, 0.57
216.753, -0.73
216.754, -0.94
216.856, 0.57
216.947, 0.68
216.954, -0.74
216.954, -0.95
217.056, 0.60
217.147, 0.66
217.153, -0.50
217.153, -0.69
217.155, -0.94
217.156, -1.11
217.251, -0.37
217.251, -0.36
217.256, 0.62
217.347, 0.68
217.352, -0.42
217.353, -0.75
217.355, -0.92
217.356, -1.10
217.456, 0.60
217.547, 0.64
217.552, -0.43
217.553, -0.66
217.650, -0.52
217.652, -0.26
217.656, 0.62
217.747, 0.58
217.753, -0.65
217.755, -0.98
217.849, -0.79
217.852, -0.27
217.856, 0.54
217.947, 0.66
217.954, -0.78
217.954, -0.81
218.049, -0.76
218.051, -0.55
218.056, 0.58
218.147, 0.67
218.153, -0.48
218.153, -0.48
218.155, -0.85
218.156, -1.10
218.250, -0.49
218.252, -0.26
218.256, 0.55
218.347, 0.69
218.352, -0.38
218.354, -1.06
218.449, -0.81
218.451, -0.56
218.456, 0.61
218.547, 0.63
218.553, -0.54
218.553, -0.68
218.555, -0.92
218.556, -1.10
218.656, 0.52
218.747, 0.58
218.753, -0.70
218.755, -1.06
218.856, 0.50
218.947, 0.60
219.056, 0.60
219.147, 0.62
219.250, -0.60
219.252, -0.33
219.256, 0.66
219.347, 0.69
219.352, -0.42
219.356, -1.11
219.455, 0.48
219.548, 0.55
219.554, -0.75
219.556, -1.09
219.656, 0.53
219.747, 0.59
219.753, -0.72
219.754, -1.01
219.856, 0.58
219.947, 0.66
219.952, -0.36
219.953, -0.68
219.955, -0.89
219.956, -1.07
220.056, 0.53
220.147, 0.61
220.154, -0.75
220.155, -1.09
220.250, -0.66
220.252, -0.29
220.256, 0.61
220.347, 0.61
220.352, -0.25
220.355, -1.05
220.450, -0.49
220.452, -0.26
220.456, 0.66
220.547, 0.59
220.552, -0.24
220.554, -0.78
220.651, -0.57
220.652, -0.29
220.656, 0.52
220.748, 0.52
220.755, -1.03
220.755, -1.11
220.855, 0.46
220.947, 0.59
220.953, -0.71
220.955, -1.00
221.050, -0.57
221.052, -0.26
221.056, 0.67
221.147, 0.70
221.155, -0.88
221.156, -1.15
221.249, -0.79
221.252, -0.27
221.256, 0.68
221.347, 0.67
221.456, 0.49
221.547, 0.60
221.553, -0.73
221.555, -1.00
221.649, -0.81
221.652, -0.29
221.657, 0.69
221.747, 0.56
221.752, -0.44
221.753, -0.70
221.856, 0.60
221.947, 0.60
222.049, -0.80
222.051, -0.57
222.055, 0.45
222.147, 0.56
222.153, -0.57
222.156, -1.12
222.249, -0.77
222.250, -0.60
222.256, 0.52
222.347, 0.64
222.353, -0.59
222.356, -1.11
222.450, -0.54
222.452, -0.30
222.456, 0.57
222.548, 0.54
222.553, -0.55
222.555, -0.98
222.656, 0.60
222.747, 0.65
222.857, 0.70
222.947, 0.61
222.953, -0.61
222.955, -0.96
223.050, -0.55
223.052, -0.30
223.056, 0.62
223.147, 0.56
223.153, -0.67
223.155, -1.06
223.256, 0.65
223.347, 0.69
223.355, -0.94
223.355, -0.96
223.456, 0.55
223.547, 0.61
223.552, -0.45
223.555, -1.03
223.650, -0.58
223.652, -0.30
223.656, 0.58
223.747, 0.56
223.752, -0.32
223.756, -1.14
223.856, 0.62
223.947, 0.59
223.955, -1.03
223.956, -1.17
224.050, -0.63
224.052, -0.36
224.056, 0.58
224.147, 0.69
224.152, -0.46
224.153, -0.66
224.256, 0.67
224.347, 0.66
224.354, -0.87
224.356, -1.12
224.450, -0.51
224.452, -0.31
224.456, 0.66
224.547, 0.58
224.657, 0.74
224.748, 0.54
224.752, -0.32
224.753, -0.70
224.856, 0.62
224.947, 0.58
225.049, -0.82
225.051, -0.53
225.056, 0.63
225.147, 0.60
225.152, -0.26
225.152, -0.33
225.250, -0.53
225.252, -0.26
225.256, 0.66
225.347, 0.57
225.352, -0.43
225.355, -1.03
225.456, 0.55
225.547, 0.66
225.555, -0.87
225.556, -1.10
225.656, 0.65
225.747, 0.60
225.753, -0.59
225.756, -1.06
225.856, 0.60
225.947, 0.56
226.049, -0.83
226.051, -0.63
226.056, 0.56
226.147, 0.58
226.152, -0.27
226.152, -0.37
226.256, 0.66
226.347, 0.63
226.456, 0.61
226.547, 0.61
226.553, -0.46
226.553, -0.50
226.651, -0.49
226.651, -0.30
226.656, 0.65
226.747, 0.62
226.856, 0.58
226.947, 0.62
226.952, -0.23
226.952, -0.39
227.056, 0.60
227.147, 0.62
227.152, -0.26
227.153, -0.62
227.256, 0.55
227.347, 0.65
227.353, -0.68
227.356, -1.08
227.449, -0.75
227.452, -0.25
227.457, 0.76
227.547, 0.65
227.555, -0.87
227.556, -1.12
227.651, -0.49
227.652, -0.27
227.656, 0.64
227.747, 0.63
227.754, -0.72
227.756, -1.11
227.849, -0.77
227.852, -0.29
227.857, 0.70
227.947, 0.71
227.952, -0.38
227.955, -1.03
228.056, 0.60
228.147, 0.67
228.153, -0.66
228.156, -1.09
228.256, 0.59
228.348, 0.51
228.352, -0.36
228.353, -0.77
228.355, -0.96
228.355, -1.06
228.449, -0.81
228.452, -0.28
228.456, 0.59
228.547, 0.65
228.553, -0.64
228.556, -1.10
228.656, 0.59
228.747, 0.66
228.748, 0.46
228.748, 0.45
228.849, -0.81
228.851, -0.53
228.856, 0.61
228.947, 0.58
228.955, -0.93
228.955, -1.04
229.056, 0.66
229.148, 0.55
229.154, -0.96
229.156, -1.11
229.256, 0.66
229.347, 0.66
229.355, -0.89
229.356, -1.10
229.449, -0.81
229.451, -0.57
229.456, 0.65
229.548, 0.54
229.552, -0.43
229.553, -0.71
229.651, -0.57
229.652, -0.33
229.656, 0.61
229.747, 0.61
229.754, -0.72
229.754, -0.99
229.856, 0.64
229.947, 0.59
229.954, -0.86
229.956, -1.09
230.056, 0.62
230.147, 0.58
230.153, -0.62
230.155, -0.99
230.256, 0.62
230.348, 0.54
230.456, 0.61
230.547, 0.68
230.552, -0.46
230.556, -1.10
230.657, 0.68
230.747, 0.60
230.755, -1.01
230.755, -1.04
230.856, 0.61
230.947, 0.55
231.056, 0.67
231.147, 0.56
231.155, -1.01
231.155, -1.07
231.257, 0.68
231.347, 0.65
231.352, -0.44
231.354, -0.78
231.451, -0.40
231.451, -0.29
231.457, 0.68
231.547, 0.61
231.552, -0.29
231.553, -0.80
231.651, -0.53
231.652, -0.29
231.656, 0.62
231.747, 0.59
231.753, -0.57
231.755, -0.98
231.850, -0.72
231.850, -0.62
231.856, 0.62
231.947, 0.67
231.952, -0.39
231.953, -0.66
231.954, -0.90
231.956, -1.10
232.050, -0.56
232.052, -0.27
232.056, 0.66
232.147, 0.57
232.152, -0.27
232.152, -0.31
232.155, -0.90
232.156, -1.09
232.249, -0.78
232.250, -0.56
232.256, 0.61
232.348, 0.54
232.352, -0.31
232.354, -0.80
232.355, -0.94
232.356, -1.09
232.456, 0.56
232.547, 0.68
232.555, -0.87
232.556, -1.10
232.656, 0.61
232.747, 0.69
232.850, -0.57
232.851, -0.33
232.856, 0.63
232.947, 0.65
232.952, -0.45
232.956, -1.09
233.051, -0.53
233.052, -0.28
233.056, 0.60
233.147, 0.68
233.152, -0.23
233.152, -0.35
233.154, -0.90
233.154, -1.02
233.256, 0.59
233.347, 0.64
233.456, 0.52
233.547, 0.66
233.552, -0.40
233.553, -0.70
233.554, -0.89
233.556, -1.10
233.656, 0.55
233.747, 0.62
233.755, -0.97
233.755, -1.07
233.856, 0.65
233.948, 0.45
233.954, -0.93
233.956, -1.11
234.048, -0.99
234.048, -0.96
234.056, 0.52
234.147, 0.59
234.153, -0.62
234.153, -0.71
234.256, 0.61
234.347, 0.64
234.352, -0.45
234.353, -0.69
234.448, -0.99
234.448, -0.96
234.456, 0.63
234.547, 0.60
234.649, -0.76
234.651, -0.59
234.656, 0.59
234.748, 0.55
234.753, -0.68
234.756, -1.11
234.856, 0.66
234.947, 0.62
234.952, -0.42
234.954, -0.98
235.056, 0.64
235.148, 0.53
235.152, -0.41
235.153, -0.74
235.249, -0.84
235.252, -0.32
235.256, 0.60
235.347, 0.56
235.355, -0.89
235.356, -1.09
235.451, -0.47
235.451, -0.31
235.456, 0.59
235.547, 0.56
235.554, -0.86
235.554, -0.98
235.656, 0.59
235.748, 0.54
235.752, -0.38
235.756, -1.11
235.849, -0.72
235.851, -0.55
235.857, 0.68
235.947, 0.66
236.050, -0.56
236.052, -0.29
236.056, 0.65
236.148, 0.52
236.152, -0.37
236.153, -0.71
236.256, 0.61
236.348, 0.53
236.352, -0.34
236.353, -0.82
236.450, -0.49
236.452, -0.28
236.456, 0.62
236.547, 0.68
236.548, 0.54
236.548, 0.44
236.651, -0.45
236.652, -0.32
236.656, 0.58
236.748, 0.43
236.752, -0.41
236.754, -1.05
236.856, 0.52
236.948, 0.54
236.952, -0.34
236.953, -0.74
237.050, -0.53
237.052, -0.28
237.056, 0.56
237.148, 0.47
237.154, -0.96
237.156, -1.13
237.256, 0.67
237.347, 0.66
237.352, -0.34
237.355, -0.93
237.456, 0.55
237.548, 0.50
237.552, -0.43
237.556, -1.12
237.651, -0.49
237.651, -0.43
237.656, 0.62
237.748, 0.51
237.752, -0.26
237.752, -0.40
237.851, -0.58
237.852, -0.27
237.857, 0.69
237.947, 0.72
237.953, -0.51
237.953, -0.55
238.056, 0.53
238.147, 0.65
238.152, -0.44
238.154, -1.00
238.250, -0.50
238.252, -0.28
238.256, 0.56
238.347, 0.69
238.457, 0.69
238.548, 0.53
238.551, -0.21
238.556, -1.12
238.647, -1.20
238.647, -1.19
238.656, 0.54
238.747, 0.56
238.753, -0.65
238.754, -0.96
238.851, -0.38
238.851, -0.36
238.856, 0.66
238.948, 0.54
238.953, -0.69
238.956, -1.12
239.056, 0.65
239.147, 0.63
239.152, -0.42
239.154, -0.91
239.256, 0.64
239.347, 0.60
239.352, -0.26
239.352, -0.38
239.355, -0.97
239.356, -1.12
239.451, -0.60
239.451, -0.41
239.456, 0.62
239.548, 0.54
239.552, -0.25
239.553, -0.49
239.553, -0.66
239.556, -1.12
239.651, -0.51
239.651, -0.33
239.656, 0.67
239.747, 0.74
239.752, -0.46
239.756, -1.12
239.850, -0.49
239.852, -0.27
239.857, 0.68
239.947, 0.65
239.953, -0.51
239.954, -0.75
240.056, 0.67
240.147, 0.61
240.153, -0.46
240.155, -1.07
240.250, -0.49
240.252, -0.26
240.257, 0.68
240.347, 0.66
240.352, -0.22
240.354, -0.72
240.354, -0.82
240.355, -1.08
240.451, -0.44
240.451, -0.30
240.456, 0.57
240.547, 0.68
240.651, -0.54
240.652, -0.32
240.656, 0.66
240.747, 0.66
240.755, -0.87
240.756, -1.11
240.851, -0.56
240.852, -0.28
240.857, 0.70
240.947, 0.66
240.954, -0.80
240.954, -0.90
241.056, 0.64
241.147, 0.61
241.257, 0.70
241.347, 0.67
241.354, -0.67
241.355, -0.96
241.456, 0.67
241.547, 0.62
241.551, -0.21
241.552, -0.34
241.554, -0.65
241.554, -0.80
241.656, 0.63
241.747, 0.62
241.751, -0.22
241.752, -0.36
241.754, -0.73
241.756, -1.10
241.850, -0.48
241.852, -0.27
241.857, 0.76
241.947, 0.56
241.952, -0.40
241.955, -1.08
242.056, 0.62
242.147, 0.68
242.152, -0.36
242.155, -0.93
242.257, 0.71
242.347, 0.67
242.457, 0.71
242.547, 0.66
242.656, 0.57
242.747, 0.60
242.753, -0.73
242.754, -1.02
242.857, 0.71
242.947, 0.61
242.953, -0.42
242.955, -1.02
243.056, 0.63
243.147, 0.57
243.152, -0.48
243.154, -1.04
243.250, -0.52
243.252, -0.28
243.256, 0.57
243.347, 0.64
243.352, -0.25
243.352, -0.35
243.355, -0.98
243.356, -1.11
243.451, -0.49
243.452, -0.28
243.457, 0.69
243.547, 0.56
243.554, -0.92
243.554, -0.98
243.656, 0.67
243.747, 0.59
243.752, -0.45
243.755, -0.96
243.856, 0.61
243.947, 0.55
243.954, -0.90
243.955, -0.98
244.056, 0.62
244.147, 0.59
244.152, -0.42
244.156, -1.10
244.256, 0.61
244.347, 0.57
244.456, 0.62
244.547, 0.60
244.650, -0.52
244.652, -0.27
244.656, 0.64
244.747, 0.64
244.753, -0.63
244.753, -0.66
244.856, 0.58
244.947, 0.56
244.953, -0.71
244.955, -1.02
245.056, 0.61
245.147, 0.67
245.152, -0.38
245.154, -0.86
245.257, 0.72
245.347, 0.67
245.353, -0.51
245.353, -0.72
245.355, -0.96
245.356, -1.08
245.456, 0.62
245.547, 0.55
245.554, -0.86
245.554, -0.98
245.656, 0.62
245.747, 0.61
245.753, -0.58
245.753, -0.67
245.755, -0.99
245.756, -1.09
245.856, 0.58
245.947, 0.58
245.952, -0.23
245.955, -1.06
246.050, -0.55
246.051, -0.38
246.056, 0.60
246.147, 0.58
246.152, -0.41
246.154, -0.76
246.250, -0.57
246.252, -0.27
246.256, 0.63
246.347, 0.60
246.353, -0.65
246.354, -1.01
246.451, -0.50
246.451, -0.30
246.456, 0.57
246.547, 0.60
246.552, -0.41
246.555, -1.05
246.649, -0.84
246.651, -0.62
246.656, 0.56
246.747, 0.56
246.752, -0.49
246.753, -0.75
246.856, 0.66
246.947, 0.68
246.953, -0.75
246.955, -0.97
247.051, -0.45
247.051, -0.30
247.056, 0.52
247.147, 0.59
247.152, -0.39
247.154, -0.93
247.256, 0.61
247.348, 0.55
247.456, 0.53
247.547, 0.58
247.555, -0.93
247.556, -1.08
247.656, 0.51
247.747, 0.57
247.752, -0.29
247.753, -0.73
247.755, -0.95
247.755, -1.05
247.849, -0.75
247.851, -0.55
247.856, 0.65
247.948, 0.53
247.952, -0.38
247.956, -1.11
248.051, -0.49
248.051, -0.36
248.056, 0.58
248.147, 0.65
248.152, -0.43
248.155, -0.96
248.256, 0.55
248.347, 0.57
248.352, -0.25
248.353, -0.72
248.355, -0.95
248.355, -0.99
248.456, 0.64
248.548, 0.55
248.649, -0.82
248.651, -0.59
248.657, 0.74
248.747, 0.60
248.753, -0.62
248.754, -1.04
248.856, 0.59
248.948, 0.45
248.952, -0.26
248.952, -0.31
248.955, -0.86
248.956, -1.11
249.056, 0.52
249.148, 0.54
249.153, -0.44
249.156, -1.11
249.256, 0.56
249.347, 0.55
249.353, -0.64
249.355, -1.07
249.450, -0.71
249.452, -0.28
249.456, 0.49
249.547, 0.58
249.656, 0.50
249.747, 0.70
249.752, -0.32
249.755, -1.09
249.856, 0.52
249.948, 0.55
249.952, -0.28
249.953, -0.53
249.955, -0.89
249.956, -1.11
250.056, 0.52
250.147, 0.56
250.155, -0.96
250.156, -1.06
250.256, 0.57
250.347, 0.63
250.353, -0.77
250.354, -1.03
250.456, 0.50
250.548, 0.53
250.552, -0.25
250.552, -0.41
250.656, 0.51
250.748, 0.41
250.856, 0.55
250.947, 0.62
251.056, 0.56
251.147, 0.56
251.154, -0.85
251.154, -0.93
251.256, 0.52
251.348, 0.55
251.353, -0.64
251.355, -1.04
251.456, 0.49
251.548, 0.44
251.552, -0.29
251.552, -0.29
251.655, 0.42
251.747, 0.67
251.753, -0.67
251.754, -0.97
251.850, -0.48
251.852, -0.29
251.855, 0.39
251.948, 0.50
251.953, -0.70
251.955, -1.05
252.056, 0.64
252.147, 0.55
252.256, 0.48
252.347, 0.57
252.352, -0.25
252.352, -0.32
252.456, 0.49
252.547, 0.56
252.555, -0.96
252.556, -1.08
252.656, 0.65
252.747, 0.59
252.754, -0.99
252.756, -1.10
252.855, 0.35
252.948, 0.53
252.952, -0.38
252.955, -0.99
253.056, 0.50
253.148, 0.53
253.155, -0.98
253.156, -1.16
253.251, -0.44
253.251, -0.32
253.256, 0.52
253.347, 0.62
253.352, -0.24
253.354, -0.78
253.450, -0.50
253.452, -0.27
253.456, 0.63
253.548, 0.53
253.554, -0.95
253.556, -1.13
253.651, -0.39
253.651, -0.36
253.656, 0.59
253.747, 0.65
253.752, -0.40
253.755, -1.02
253.856, 0.54
253.948, 0.52
253.952, -0.26
253.955, -0.94
254.055, 0.46
254.147, 0.60
254.152, -0.28
254.152, -0.32
254.154, -0.83
254.156, -1.18
254.256, 0.57
254.347, 0.57
254.353, -0.68
254.355, -0.97
254.456, 0.64
254.547, 0.55
254.552, -0.32
254.556, -1.18
254.651, -0.39
254.651, -0.34
254.656, 0.63
254.748, 0.52
254.752, -0.27
254.752, -0.34
254.755, -0.93
254.756, -1.15
254.851, -0.47
254.851, -0.36
254.856, 0.62
254.947, 0.67
254.953, -0.63
254.955, -1.03
255.056, 0.49
255.147, 0.58
255.152, -0.43
255.154, -0.88
255.154, -1.04
255.156, -1.15
255.256, 0.59
255.347, 0.65
255.354, -0.74
255.356, -1.11
255.456, 0.55
255.547, 0.68
255.552, -0.26
255.554, -0.71
255.649, -0.73
255.651, -0.55
255.656, 0.59
255.748, 0.54
255.752, -0.38
255.753, -0.72
255.755, -0.93
255.756, -1.10
255.851, -0.61
255.851, -0.36
255.856, 0.54
255.947, 0.57
255.955, -0.90
255.956, -1.10
256.049, -0.83
256.051, -0.57
256.056, 0.65
256.147, 0.57
256.152, -0.24
256.153, -0.43
256.153, -0.51
256.154, -0.80
256.251, -0.61
256.252, -0.26
256.256, 0.53
256.347, 0.56
256.352, -0.32
256.352, -0.34
256.354, -0.69
256.355, -1.05
256.449, -0.81
256.451, -0.60
256.456, 0.58
256.547, 0.61
256.551, -0.21
256.552, -0.36
256.650, -0.75
256.650, -0.67
256.656, 0.64
256.748, 0.55
256.753, -0.62
256.754, -0.84
256.754, -0.89
256.756, -1.09
256.856, 0.54
256.948, 0.54
256.955, -0.97
256.956, -1.09
257.049, -0.83
257.051, -0.56
257.056, 0.55
257.147, 0.57
257.152, -0.31
257.152, -0.38
257.256, 0.50
257.348, 0.54
257.355, -0.90
257.355, -1.04
257.449, -0.78
257.451, -0.52
257.456, 0.51
257.547, 0.55
257.552, -0.38
257.554, -0.78
257.554, -0.88
257.556, -1.09
257.656, 0.54
257.748, 0.53
257.856, 0.56
257.948, 0.54
257.953, -0.60
257.955, -1.00
258.056, 0.64
258.147, 0.63
258.152, -0.43
258.153, -0.70
258.155, -0.89
258.156, -1.11
258.256, 0.54
258.348, 0.53
258.352, -0.23
258.352, -0.36
258.354, -0.89
258.356, -1.10
258.456, 0.51
258.547, 0.57
258.552, -0.38
258.556, -1.10
258.651, -0.50
258.652, -0.30
258.656, 0.50
258.747, 0.56
258.856, 0.62
258.947, 0.61
258.952, -0.32
258.955, -1.04
259.056, 0.59
259.148, 0.55
259.153, -0.68
259.156, -1.10
259.256, 0.53
259.347, 0.57
259.456, 0.53
259.547, 0.56
259.552, -0.48
259.556, -1.10
259.651, -0.47
259.651, -0.40
259.656, 0.55
259.747, 0.58
259.753, -0.78
259.755, -1.03
259.849, -0.77
259.852, -0.28
259.856, 0.53
259.947, 0.56
259.953, -0.54
259.953, -0.65
260.056, 0.55
260.148, 0.49
260.152, -0.48
260.153, -0.70
260.256, 0.60
260.347, 0.56
260.355, -0.94
260.356, -1.06
260.451, -0.48
260.451, -0.32
260.456, 0.52
260.547, 0.66
260.552, -0.31
260.553, -0.70
260.649, -0.73
260.651, -0.49
260.656, 0.52
260.747, 0.64
260.752, -0.32
260.754, -0.86
260.849, -0.67
260.850, -0.48
260.856, 0.59
260.948, 0.53
261.051, -0.50
261.052, -0.28
261.056, 0.61
261.147, 0.58
261.154, -0.76
261.156, -1.11
261.256, 0.55
261.348, 0.53
261.352, -0.42
261.356, -1.08
261.456, 0.56
261.548, 0.43
261.555, -0.92
261.556, -1.11
261.649, -0.70
261.650, -0.54
261.656, 0.63
261.747, 0.58
261.849, -0.79
261.851, -0.62
261.856, 0.58
261.948, 0.52
261.953, -0.72
261.954, -1.05
262.050, -0.62
262.052, -0.24
262.056, 0.61
262.147, 0.68
262.152, -0.39
262.154, -1.00
262.249, -0.81
262.251, -0.56
262.256, 0.50
262.347, 0.66
262.352, -0.37
262.354, -0.77
262.449, -0.73
262.451, -0.49
262.457, 0.68
262.548, 0.52
262.555, -0.92
262.556, -1.08
262.649, -0.75
262.650, -0.64
262.656, 0.62
262.747, 0.61
262.856, 0.52
262.947, 0.58
262.953, -0.68
262.956, -1.10
263.051, -0.46
263.051, -0.40
263.056, 0.59
263.148, 0.53
263.153, -0.67
263.155, -1.04
263.249, -0.78
263.251, -0.44
263.256, 0.63
263.348, 0.55
263.352, -0.39
263.353, -0.75
263.355, -0.98
263.356, -1.08
263.456, 0.61
263.547, 0.65
263.555, -0.93
263.555, -0.99
263.650, -0.77
263.650, -0.64
263.656, 0.55
263.747, 0.61
263.755, -0.89
263.756, -1.09
263.851, -0.52
263.852, -0.30
263.856, 0.52
263.948, 0.50
264.056, 0.53
264.148, 0.53
264.153, -0.51
264.155, -1.06
264.256, 0.50
264.348, 0.36
264.352, -0.27
264.352, -0.32
264.450, -0.65
264.452, -0.29
264.456, 0.56
264.548, 0.54
264.555, -0.90
264.556, -1.10
264.656, 0.54
264.748, 0.46
264.752, -0.38
264.753, -0.75
264.755, -0.90
264.756, -1.10
264.851, -0.49
264.852, -0.28
264.856, 0.50
264.948, 0.44
264.953, -0.78
264.954, -1.05
265.056, 0.53
265.148, 0.43
265.151, -0.22
265.152, -0.35
265.250, -0.51
265.252, -0.29
265.256, 0.66
265.347, 0.58
265.353, -0.77
265.356, -1.11
265.456, 0.53
265.548, 0.38
265.554, -0.79
265.554, -0.96
265.656, 0.51
265.748, 0.46
265.752, -0.48
265.755, -1.04
265.850, -0.53
265.852, -0.27
265.855, 0.48
265.947, 0.57
265.952, -0.22
265.952, -0.35
265.955, -0.96
265.956, -1.12
266.056, 0.55
266.147, 0.57
266.152, -0.23
266.152, -0.48
266.256, 0.58
266.348, 0.47
266.352, -0.23
266.352, -0.35
266.355, -0.96
266.356, -1.09
266.456, 0.50
266.547, 0.56
266.552, -0.25
266.553, -0.78
266.656, 0.54
266.748, 0.46
266.753, -0.48
266.755, -0.93
266.849, -0.81
266.851, -0.38
266.856, 0.50
266.947, 0.68
266.952, -0.33
266.954, -0.87
267.056, 0.49
267.148, 0.45
267.152, -0.40
267.156, -1.16
267.256, 0.56
267.348, 0.45
267.353, -0.64
267.355, -0.99
267.450, -0.60
267.452, -0.26
267.456, 0.54
267.547, 0.58
267.551, -0.21
267.553, -0.59
267.555, -0.90
267.556, -1.08
267.656, 0.57
267.748, 0.43
267.752, -0.46
267.756, -1.11
267.856, 0.63
267.948, 0.45
267.952, -0.28
267.952, -0.40
267.953, -0.69
267.955, -1.02
268.049, -0.79
268.051, -0.56
268.056, 0.54
268.148, 0.43
268.152, -0.44
268.153, -0.72
268.250, -0.50
268.252, -0.29
268.256, 0.49
268.348, 0.44
268.353, -0.49
268.353, -0.68
268.355, -0.99
268.356, -1.10
268.456, 0.50
268.548, 0.41
268.552, -0.47
268.553, -0.74
268.555, -0.98
268.556, -1.10
268.656, 0.57
268.748, 0.54
268.755, -0.87
268.756, -1.11
268.856, 0.49
268.948, 0.55
268.953, -0.73
268.955, -0.93
269.050, -0.69
269.050, -0.65
269.056, 0.63
269.148, 0.52
269.152, -0.47
269.153, -0.70
269.256, 0.51
269.348, 0.49
269.354, -1.02
269.356, -1.09
269.456, 0.49
269.548, 0.54
269.552, -0.39
269.553, -0.67
269.555, -0.88
269.556, -1.11
269.647, -1.21
269.647, -1.16
269.656, 0.52
269.748, 0.51
269.751, -0.22
269.752, -0.36
269.753, -0.63
269.756, -1.08
269.856, 0.67
269.947, 0.55
